timestamps,TP9,AF7,AF8,TP10
1623120654.091,-585.938,-40.527,-145.508,-422.363
1623120654.095,-369.141,-42.969,-79.590,-302.246
1623120654.099,476.074,-17.578,62.500,319.336
1623120654.103,418.457,-18.066,20.996,312.500
1623120654.107,-440.430,-46.387,-128.906,-314.453
1623120654.111,-540.527,-48.828,-126.465,-427.734
1623120654.115,294.434,-12.695,38.574,172.852
1623120654.118,561.523,-5.371,69.824,405.273
1623120654.122,-213.867,-35.156,-83.008,-146.484
1623120654.126,-638.184,-43.457,-132.324,-474.121
1623120654.130,55.176,-17.578,1.953,5.859
1623120654.134,623.047,5.859,72.754,436.523
1623120654.166,39.551,-22.949,-54.199,36.621
1623120654.170,-653.320,-49.805,-150.879,-497.070
1623120654.174,-189.941,-21.484,-37.598,-186.523
1623120654.178,577.148,-3.906,87.891,395.508
1623120654.182,263.184,-34.668,-7.324,199.219
1623120654.186,-531.738,-48.340,-136.230,-378.906
1623120654.190,-376.465,-27.832,-74.219,-291.504
1623120654.193,444.336,-5.859,57.617,291.992
1623120654.197,474.121,-16.113,26.855,342.773
1623120654.201,-379.883,-39.062,-115.234,-266.602
1623120654.205,-560.547,-28.809,-82.520,-432.129
1623120654.209,237.305,-12.207,43.945,128.906
1623120654.196,569.824,-18.066,40.527,410.156
1623120654.200,-169.434,-40.527,-82.520,-104.004
1623120654.204,-663.574,-51.758,-127.930,-497.559
1623120654.208,-15.625,-26.855,-5.371,-47.363
1623120654.212,597.168,-10.742,58.594,426.270
1623120654.216,74.707,-31.250,-47.363,76.172
1623120654.220,-649.902,-42.969,-129.395,-471.680
1623120654.223,-258.789,-26.367,-41.016,-223.633
1623120654.227,541.016,-3.418,64.453,369.629
1623120654.231,322.266,-11.719,9.277,240.234
1623120654.235,-524.902,-43.945,-107.422,-385.742
1623120654.239,-455.078,-37.109,-82.031,-371.582
1623120654.241,401.367,-13.184,33.691,258.789
1623120654.245,488.281,-27.344,18.066,358.398
1623120654.249,-348.145,-54.688,-106.445,-253.906
1623120654.253,-605.469,-56.152,-129.395,-470.703
1623120654.257,168.945,-32.715,12.207,79.590
1623120654.261,581.055,-12.695,65.430,416.504
1623120654.265,-123.047,-26.855,-59.570,-64.941
1623120654.268,-684.082,-45.410,-136.719,-489.746
1623120654.272,-81.055,-20.508,-38.086,-73.730
1623120654.276,586.914,1.465,67.871,421.875
1623120654.280,120.605,-23.926,-29.297,103.516
1623120654.284,-629.883,-48.340,-156.738,-459.961
1623120654.286,-289.062,-32.227,-78.125,-234.375
1623120654.290,518.555,-15.137,68.848,363.281
1623120654.294,338.379,-25.391,19.531,257.324
1623120654.298,-519.043,-52.734,-132.324,-365.234
1623120654.302,-507.324,-52.246,-106.934,-383.301
1623120654.306,349.121,-16.113,41.992,240.234
1623120654.310,514.648,-5.859,57.129,395.508
1623120654.313,-303.223,-35.156,-94.727,-189.941
1623120654.317,-624.512,-47.363,-131.836,-452.637
1623120654.321,125.000,-24.414,21.973,69.336
1623120654.325,600.586,-15.625,63.965,436.035
1623120654.329,-57.617,-41.016,-75.195,-25.391
1623120654.331,-668.457,-46.875,-138.184,-493.652
1623120654.335,-122.559,-24.902,-14.648,-119.141
1623120654.339,588.867,-9.277,70.312,416.504
1623120654.343,193.359,-22.949,-15.625,145.508
1623120654.347,-606.445,-46.875,-128.906,-452.637
1623120654.351,-342.773,-34.668,-77.148,-286.133
1623120654.355,496.582,-8.789,55.176,337.402
1623120654.358,405.762,-10.742,12.695,310.059
1623120654.362,-452.148,-32.715,-116.211,-318.359
1623120654.366,-520.020,-30.762,-77.148,-395.996
1623120654.370,311.523,-7.812,39.551,204.102
1623120654.374,537.598,-11.719,30.273,392.090
1623120654.376,-250.488,-38.574,-97.656,-166.504
1623120654.380,-640.625,-44.434,-127.441,-477.051
1623120654.384,67.871,-23.438,3.418,18.555
1623120654.388,596.191,-12.695,61.523,428.711
1623120654.392,-5.371,-27.832,-46.875,14.648
1623120654.396,-667.969,-47.363,-128.418,-484.375
1623120654.400,-181.152,-36.621,-44.922,-154.785
1623120654.403,573.242,-11.230,63.477,411.621
1623120654.407,231.445,-20.020,-0.488,188.965
1623120654.411,-592.285,-58.594,-129.883,-423.340
1623120654.415,-397.461,-42.480,-67.383,-313.965
1623120654.419,450.684,-3.418,66.895,309.570
1623120654.421,428.711,-16.602,38.086,326.172
1623120654.425,-425.781,-46.875,-106.934,-298.340
1623120654.429,-567.383,-36.621,-107.910,-435.547
1623120654.433,273.438,-2.930,42.969,156.250
1623120654.437,546.875,-9.766,61.523,384.766
1623120654.441,-232.422,-40.527,-92.285,-155.762
1623120654.445,-645.508,-51.270,-136.230,-479.980
1623120654.448,26.855,-21.973,18.066,-15.137
1623120654.452,615.234,0.488,102.539,440.918
1623120654.456,53.223,-28.809,-37.598,61.523
1623120654.460,-643.555,-45.410,-142.090,-469.727
1623120654.464,-203.613,-22.949,-31.738,-178.223
1623120654.466,564.453,-11.230,71.777,397.461
1623120654.470,290.527,-22.461,-14.160,223.145
1623120654.474,-547.363,-38.574,-132.324,-392.578
1623120654.478,-431.641,-33.203,-66.406,-331.543
1623120654.482,423.828,-12.207,62.012,285.645
1623120654.486,472.656,-20.020,20.996,353.516
1623120654.490,-374.512,-48.340,-116.211,-255.859
1623120654.493,-580.566,-40.039,-99.121,-442.383
1623120654.497,217.773,-13.672,33.203,133.301
1623120654.501,598.145,-28.809,40.039,450.195
1623120654.505,-105.469,-52.734,-84.473,-46.387
1623120654.509,-645.996,-39.062,-116.699,-478.027
1623120654.526,-35.645,-12.207,2.441,-75.684
1623120654.530,614.258,-1.953,75.195,419.922
1623120654.534,111.328,-30.762,-36.621,82.031
1623120654.538,-639.160,-50.781,-152.344,-483.398
1623120654.542,-255.371,-28.809,-80.078,-229.980
1623120654.546,562.988,-4.883,35.156,376.953
1623120654.550,355.469,-10.254,-10.254,250.977
1623120654.553,-494.141,-34.668,-130.371,-377.930
1623120654.557,-438.477,-32.227,-106.934,-374.023
1623120654.561,420.898,0.977,37.598,249.023
1623120654.565,537.109,1.953,47.363,371.094
1623120654.569,-311.523,-36.621,-107.910,-222.656
1623120654.586,-592.773,-43.945,-130.371,-452.637
1623120654.590,181.641,-12.695,9.277,87.891
1623120654.594,617.676,-0.488,69.824,439.453
1623120654.598,-82.520,-31.250,-57.617,-53.223
1623120654.602,-633.301,-51.270,-141.602,-473.145
1623120654.606,-29.297,-25.391,-21.973,-52.246
1623120654.610,624.512,7.324,70.801,443.359
1623120654.613,192.383,0.488,-13.184,164.551
1623120654.617,-588.867,-33.203,-143.066,-416.992
1623120654.621,-303.711,-26.367,-74.219,-242.676
1623120654.625,524.902,5.371,87.891,367.676
1623120654.629,393.066,-8.789,31.738,303.223
1623120654.616,-471.680,-46.387,-128.418,-324.219
1623120654.620,-495.117,-34.668,-92.285,-375.488
1623120654.624,351.074,-3.906,53.711,227.539
1623120654.628,544.434,-16.113,35.645,400.391
1623120654.632,-265.137,-38.574,-93.262,-184.082
1623120654.636,-621.582,-34.180,-117.676,-475.586
1623120654.640,116.699,-10.254,0.000,44.922
1623120654.643,618.164,-2.441,54.199,439.941
1623120654.647,-23.438,-22.461,-66.406,-3.418
1623120654.651,-657.227,-36.621,-136.230,-485.840
1623120654.655,-134.277,-23.926,-28.809,-126.953
1623120654.659,597.656,-7.324,59.082,423.828
1623120654.661,221.680,-31.738,-51.270,176.270
1623120654.665,-588.379,-47.852,-153.809,-437.500
1623120654.669,-350.098,-30.762,-77.637,-302.734
1623120654.673,499.512,-10.254,50.781,327.148
1623120654.677,428.223,-20.020,15.625,317.871
1623120654.681,-432.129,-47.852,-131.836,-300.781
1623120654.685,-524.902,-44.434,-108.887,-398.438
1623120654.688,307.617,-14.648,20.508,201.660
1623120654.692,571.777,-1.465,33.203,423.828
1623120654.696,-211.426,-27.832,-82.520,-142.578
1623120654.700,-640.625,-44.434,-129.395,-486.816
1623120654.704,57.617,-18.066,-6.348,-5.859
1623120654.707,615.723,-0.977,69.824,432.129
1623120654.711,26.367,-23.438,-39.551,32.715
1623120654.715,-650.391,-44.922,-138.672,-482.422
1623120654.719,-187.500,-33.203,-33.203,-163.574
1623120654.723,565.918,-16.602,71.777,381.836
1623120654.727,260.254,-19.531,-20.996,180.664
1623120654.731,-566.406,-46.875,-147.461,-406.250
1623120654.734,-412.109,-44.922,-93.262,-329.590
1623120654.738,437.988,-15.625,62.988,291.992
1623120654.742,453.125,-17.090,44.922,327.148
1623120654.746,-395.508,-44.434,-106.934,-289.551
1623120654.750,-566.406,-41.992,-102.051,-437.988
1623120654.751,241.699,-6.836,38.574,141.602
1623120654.755,562.500,-1.953,50.781,411.133
1623120654.759,-179.688,-31.250,-87.891,-115.723
1623120654.763,-655.273,-42.969,-139.648,-498.535
1623120654.767,5.371,-10.254,-14.160,-41.504
1623120654.771,610.352,7.812,55.664,435.059
1623120654.775,77.637,-24.414,-56.641,79.102
1623120654.778,-634.766,-43.945,-137.207,-468.262
1623120654.782,-235.840,-20.996,-29.297,-210.449
1623120654.786,550.781,-5.859,70.312,387.207
1623120654.790,312.988,-20.508,-17.090,246.094
1623120654.794,-520.996,-38.574,-135.742,-374.512
1623120654.796,-437.012,-27.832,-75.195,-349.609
1623120654.800,406.250,-0.977,52.734,267.090
1623120654.804,483.887,-7.812,34.668,360.840
1623120654.808,-353.027,-40.039,-93.750,-248.047
1623120654.812,-596.680,-44.922,-109.375,-460.938
1623120654.816,187.012,-31.250,5.371,99.121
1623120654.820,591.309,-21.973,38.574,436.523
1623120654.823,-105.469,-21.484,-64.941,-54.199
1623120654.827,-650.391,-35.156,-115.234,-491.211
1623120654.831,-58.594,-29.297,-15.625,-78.613
1623120654.835,591.797,-10.742,55.664,424.805
1623120654.839,122.559,-21.973,-34.180,105.469
1623120654.841,-624.512,-43.945,-135.254,-459.473
1623120654.845,-285.156,-26.367,-65.918,-243.164
1623120654.849,519.043,-6.348,60.547,357.910
1623120654.853,349.121,-19.531,18.555,258.301
1623120654.857,-499.023,-43.945,-113.770,-366.211
1623120654.861,-483.398,-43.945,-111.328,-380.859
1623120654.865,354.492,-17.578,30.273,232.422
1623120654.868,510.254,-16.113,44.922,370.605
1623120654.872,-298.340,-39.062,-103.027,-215.332
1623120654.876,-610.352,-46.875,-128.906,-470.703
1623120654.880,148.926,-20.020,10.254,59.082
1623120654.884,604.004,-10.742,68.848,421.387
1623120654.901,-56.152,-37.109,-60.547,-38.086
1623120654.905,-657.715,-48.828,-145.996,-507.324
1623120654.909,-114.746,-35.156,-31.738,-131.348
1623120654.913,593.262,-10.254,75.195,411.621
1623120654.917,186.523,-19.043,-14.648,147.949
1623120654.921,-607.910,-45.410,-144.531,-440.430
1623120654.925,-334.961,-24.414,-59.570,-270.020
1623120654.928,494.629,3.418,89.844,350.098
1623120654.932,375.977,-18.066,26.855,311.523
1623120654.936,-479.492,-57.129,-121.582,-314.453
1623120654.940,-525.879,-50.781,-84.961,-392.090
1623120654.944,286.133,-22.461,50.781,191.406
1623120654.946,508.301,-24.414,38.086,381.836
1623120654.950,-249.023,-42.480,-87.402,-165.039
1623120654.954,-635.742,-42.969,-109.863,-473.145
1623120654.958,82.031,-14.160,16.113,26.367
1623120654.962,606.445,-6.836,66.895,437.012
1623120654.966,-7.324,-35.645,-67.383,17.090
1623120654.970,-660.645,-50.293,-145.996,-492.676
1623120654.973,-169.434,-27.344,-21.973,-160.156
1623120654.977,576.172,-7.324,64.453,412.109
1623120654.981,230.957,-23.438,-28.320,189.453
1623120654.985,-577.148,-39.062,-123.047,-422.363
1623120654.989,-376.953,-32.715,-77.148,-302.734
1623120654.991,455.566,-8.789,47.363,319.824
1623120654.995,423.340,-15.137,26.855,329.102
1623120654.999,-421.387,-36.133,-108.398,-294.434
1623120655.003,-547.852,-33.203,-112.793,-416.016
1623120655.007,275.391,-21.484,24.902,183.105
1623120655.011,554.688,-28.809,58.105,420.410
1623120655.015,-205.566,-40.039,-69.824,-123.047
1623120655.018,-650.391,-41.504,-121.094,-485.352
1623120655.022,24.902,-19.531,-3.418,-4.395
1623120655.026,611.816,-5.371,82.520,455.078
1623120655.030,53.223,-32.715,-28.320,53.223
1623120655.034,-639.648,-51.758,-134.277,-475.586
1623120655.036,-207.520,-26.367,-46.387,-179.688
1623120655.040,566.406,-0.488,78.125,400.879
1623120655.044,283.203,-18.555,7.812,225.586
1623120655.048,-548.340,-38.574,-132.812,-388.672
1623120655.052,-416.016,-23.438,-76.660,-330.566
1623120655.056,428.223,-0.488,61.035,287.109
1623120655.060,465.332,-11.719,30.273,339.844
1623120655.063,-374.023,-42.969,-117.188,-272.461
1623120655.067,-574.219,-36.621,-119.629,-450.684
1623120655.071,219.727,-3.906,38.574,110.352
1623120655.075,580.078,-5.859,68.359,415.527
1623120655.079,-136.719,-33.691,-81.543,-85.449
1623120655.081,-640.137,-36.621,-141.113,-487.305
1623120655.085,-14.160,-14.648,-0.488,-50.293
1623120655.089,608.887,-3.418,78.125,440.430
1623120655.093,106.445,-25.391,-39.062,98.145
1623120655.097,-626.465,-47.852,-144.531,-456.543
1623120655.101,-251.465,-21.484,-61.523,-201.172
1623120655.105,548.828,4.395,71.777,391.113
1623120655.108,332.520,-20.020,7.324,258.301
1623120655.112,-506.836,-39.551,-118.652,-359.375
1623120655.116,-451.172,-27.832,-75.684,-357.910
1623120655.120,386.719,-17.578,40.527,248.535
1623120655.124,503.906,-17.090,25.879,364.258
1623120655.141,-311.523,-40.527,-112.305,-229.004
1623120655.145,-588.867,-43.945,-122.070,-461.426
1623120655.149,166.016,-11.719,15.625,87.891
1623120655.153,589.355,-4.395,61.035,443.359
1623120655.157,-83.984,-33.203,-65.430,-34.668
1623120655.161,-643.066,-42.969,-141.602,-484.375
1623120655.165,-70.312,-16.602,-29.785,-81.055
1623120655.168,592.773,-4.883,66.406,434.570
1623120655.172,154.785,-20.996,-10.742,129.395
1623120655.176,-607.910,-39.551,-130.371,-447.266
1623120655.180,-310.059,-29.785,-74.219,-256.836
1623120655.184,505.859,-3.418,55.176,347.168
1623120655.171,364.746,-12.207,9.277,274.902
1623120655.175,-483.398,-42.969,-129.883,-351.562
1623120655.179,-508.301,-44.434,-99.609,-402.344
1623120655.183,319.824,-18.066,43.945,205.566
1623120655.187,508.301,-11.719,37.109,381.836
1623120655.191,-289.062,-45.410,-114.258,-192.871
1623120655.195,-636.230,-54.199,-138.184,-481.445
1623120655.198,101.074,-18.066,14.160,42.480
1623120655.202,605.469,-8.789,79.590,434.082
1623120655.206,-30.762,-47.363,-75.684,-20.996
1623120655.210,-658.203,-63.965,-172.363,-494.141
1623120655.214,-134.277,-33.691,-33.203,-128.418
1623120655.216,575.684,-14.648,63.477,408.203
1623120655.220,201.172,-33.203,-40.039,170.410
1623120655.224,-596.191,-53.223,-136.719,-420.410
1623120655.228,-371.094,-30.762,-62.500,-288.086
1623120655.232,461.914,-5.371,61.523,324.707
1623120655.236,387.695,-26.855,6.836,313.965
1623120655.240,-456.055,-49.805,-137.695,-307.129
1623120655.243,-545.410,-43.457,-102.539,-426.758
1623120655.247,273.926,-22.461,41.504,171.875
1623120655.251,535.156,-20.020,45.898,397.461
1623120655.255,-231.445,-46.875,-90.820,-163.574
1623120655.259,-640.625,-47.363,-108.887,-494.141
1623120655.276,62.012,-16.113,19.043,-7.812
1623120655.280,610.840,-2.930,71.289,424.316
1623120655.284,21.973,-26.367,-48.340,25.879
1623120655.288,-662.109,-50.293,-138.184,-486.816
1623120655.292,-202.637,-39.551,-38.574,-171.387
1623120655.296,563.477,-12.207,60.059,399.414
1623120655.300,248.535,-14.648,-14.648,198.730
1623120655.303,-575.195,-38.086,-120.605,-406.250
1623120655.307,-408.203,-35.645,-73.730,-315.918
1623120655.311,435.547,-15.625,52.246,301.758
1623120655.315,442.383,-12.695,46.875,345.215
1623120655.319,-395.996,-34.668,-102.051,-269.043
1623120655.321,-562.012,-41.992,-122.559,-427.246
1623120655.325,250.000,-12.695,29.785,156.250
1623120655.329,579.102,-2.930,71.777,425.293
1623120655.333,-178.223,-34.180,-77.637,-118.652
1623120655.337,-655.273,-42.480,-143.555,-490.234
1623120655.341,-1.953,-16.602,-21.484,-26.367
1623120655.345,594.238,-4.395,72.266,430.664
1623120655.348,66.895,-23.926,-23.438,65.430
1623120655.352,-648.926,-52.246,-157.227,-475.586
1623120655.356,-252.441,-39.551,-67.383,-212.891
1623120655.360,534.668,-6.836,83.008,372.559
1623120655.364,303.223,-25.879,8.789,239.746
1623120655.366,-526.855,-55.664,-131.348,-361.816
1623120655.370,-442.383,-29.785,-83.008,-337.891
1623120655.374,405.273,2.441,62.012,250.977
1623120655.378,488.281,-12.207,30.273,335.449
1623120655.382,-325.684,-38.086,-126.465,-231.445
1623120655.386,-540.527,-31.250,-127.930,-405.762
1623120655.390,230.957,-8.301,26.855,140.625
1623120655.393,600.098,-7.812,67.871,439.941
1623120655.397,-114.746,-39.062,-86.426,-49.805
1623120655.401,-653.320,-49.316,-136.719,-470.703
1623120655.405,-49.316,-22.949,-4.883,-57.617
1623120655.409,607.910,-3.906,70.312,450.684
1623120655.411,129.883,-24.414,-41.504,125.977
1623120655.415,-639.160,-55.664,-153.809,-454.102
1623120655.419,-298.340,-40.039,-63.965,-243.164
1623120655.423,519.531,-13.184,59.082,362.305
1623120655.427,344.238,-24.414,2.441,261.719
1623120655.431,-500.977,-50.293,-134.277,-357.910
1623120655.435,-478.516,-40.527,-95.215,-372.559
1623120655.438,369.629,-19.043,41.992,233.398
1623120655.442,518.555,-18.555,36.133,375.000
1623120655.446,-302.734,-34.180,-84.961,-206.543
1623120655.450,-618.164,-46.387,-120.605,-457.520
1623120655.454,141.113,-28.320,1.465,77.637
1623120655.456,618.652,-2.441,67.383,451.172
1623120655.460,-32.715,-19.043,-56.641,-6.348
1623120655.464,-650.879,-43.457,-144.531,-477.051
1623120655.468,-69.336,-22.461,-20.020,-76.660
1623120655.472,543.457,-2.930,65.918,385.742
1623120655.476,78.613,-27.344,-47.852,74.219
1623120655.480,-574.219,-48.828,-143.555,-415.039
1623120655.483,-315.430,-29.297,-73.242,-251.953
1623120655.487,502.441,-0.488,72.754,343.262
1623120655.491,397.949,-15.137,31.738,286.621
1623120655.495,-452.637,-45.410,-130.371,-326.660
1623120655.499,-498.535,-36.133,-107.422,-386.230
1623120655.501,329.102,-10.254,33.203,215.332
1623120655.505,541.016,-10.742,41.504,406.738
1623120655.509,-249.023,-37.598,-96.191,-155.762
1623120655.513,-628.906,-47.363,-133.789,-464.844
1623120655.517,92.773,-25.879,1.465,31.738
1623120655.521,619.141,-11.719,60.059,434.570
1623120655.525,2.930,-30.273,-64.941,6.348
1623120655.528,-644.043,-46.387,-147.461,-487.793
1623120655.532,-145.508,-18.555,-26.855,-154.785
1623120655.536,592.285,-1.953,68.359,399.902
1623120655.540,251.953,-24.902,-21.973,184.570
1623120655.544,-552.734,-43.457,-137.695,-409.668
1623120655.546,-354.492,-32.227,-71.289,-301.270
1623120655.550,484.863,-9.277,67.383,312.988
1623120655.554,444.824,-14.160,30.273,323.730
1623120655.558,-411.133,-39.551,-109.375,-297.363
1623120655.562,-530.762,-35.156,-96.191,-416.016
1623120655.566,284.180,-9.766,37.598,165.039
1623120655.570,562.988,-14.160,41.016,402.832
1623120655.573,-191.406,-36.621,-93.262,-136.230
1623120655.577,-636.230,-40.527,-121.582,-485.840
1623120655.581,34.180,-19.531,1.465,-8.301
1623120655.585,610.352,-3.418,55.176,439.941
1623120655.589,46.387,-23.926,-64.453,50.293
1623120655.606,-649.902,-43.457,-157.227,-479.980
1623120655.610,-212.402,-32.715,-52.734,-187.500
1623120655.614,552.734,-12.207,74.219,379.883
1623120655.618,258.789,-25.879,1.465,204.590
1623120655.622,-571.289,-52.246,-129.395,-400.391
1623120655.626,-438.477,-44.434,-99.121,-342.285
1623120655.630,410.156,-15.625,45.410,274.902
1623120655.633,452.148,-13.184,52.246,335.449
1623120655.637,-376.953,-40.039,-101.562,-267.090
1623120655.641,-573.730,-47.852,-119.629,-433.594
1623120655.645,214.844,-23.926,22.461,131.348
1623120655.649,574.219,-9.766,56.641,419.434
1623120655.651,-140.137,-37.109,-73.242,-89.844
1623120655.655,-639.160,-48.828,-125.000,-473.633
1623120655.659,-15.625,-18.066,-12.695,-33.203
1623120655.663,592.285,-8.789,69.824,435.059
1623120655.667,82.520,-37.598,-40.039,96.191
1623120655.671,-639.160,-49.805,-150.391,-449.219
1623120655.675,-267.090,-28.320,-51.270,-213.867
1623120655.678,529.785,-5.859,82.520,379.395
1623120655.682,323.730,-16.113,17.578,264.648
1623120655.686,-518.555,-47.852,-133.301,-354.492
1623120655.690,-458.984,-36.133,-86.426,-353.516
1623120655.694,388.184,-2.930,57.617,249.512
1623120655.696,496.094,-17.090,28.320,363.281
1623120655.700,-333.496,-44.434,-115.234,-223.633
1623120655.704,-611.816,-47.363,-120.117,-450.195
1623120655.708,151.855,-25.391,18.555,94.238
1623120655.712,578.125,-10.254,61.523,428.223
1623120655.716,-100.098,-40.039,-69.824,-53.711
1623120655.720,-663.086,-53.711,-140.137,-483.398
1623120655.723,-77.637,-20.020,-9.277,-77.637
1623120655.727,597.168,-5.859,64.453,428.223
1623120655.731,153.320,-32.715,-45.898,118.164
1623120655.735,-610.840,-47.852,-131.348,-457.520
1623120655.739,-302.734,-31.738,-58.594,-252.441
1623120655.741,510.254,-14.160,65.430,347.168
1623120655.745,368.164,-19.531,25.879,274.902
1623120655.749,-458.496,-34.180,-105.957,-337.402
1623120655.753,-480.957,-33.203,-95.215,-392.090
1623120655.757,374.512,-6.348,48.340,235.840
1623120655.761,471.191,-8.789,39.062,344.727
1623120655.765,-390.137,-43.457,-116.211,-270.508
1623120655.768,-616.699,-45.410,-122.559,-464.355
1623120655.772,106.934,-21.484,11.719,53.223
1623120655.776,585.449,-5.371,75.195,431.641
1623120655.780,-37.598,-26.367,-50.781,-20.508
1623120655.784,-649.902,-50.781,-143.555,-498.047
1623120655.786,-130.371,-30.273,-29.297,-137.695
1623120655.790,577.148,-1.953,85.449,402.344
1623120655.794,200.195,-22.461,-15.625,144.531
1623120655.798,-585.449,-53.223,-150.879,-446.777
1623120655.802,-351.074,-37.598,-63.965,-294.434
1623120655.806,470.703,-1.953,68.359,314.941
1623120655.810,399.902,-5.859,27.344,285.156
1623120655.813,-441.406,-43.457,-120.117,-333.984
1623120655.817,-531.738,-45.410,-115.723,-424.805
1623120655.821,284.180,-11.230,52.246,169.434
1623120655.825,544.922,-10.254,68.848,391.602
1623120655.829,-218.262,-32.715,-87.891,-160.156
1623120655.831,-617.188,-42.480,-122.070,-484.863
1623120655.835,82.031,-22.461,14.648,8.789
1623120655.839,613.770,-8.301,72.754,432.129
1623120655.843,30.762,-30.762,-37.109,30.273
1623120655.847,-631.348,-46.387,-130.859,-476.562
1623120655.851,-175.293,-24.902,-43.457,-158.691
1623120655.855,573.242,-2.441,70.801,408.203
1623120655.858,257.324,-21.973,-20.020,196.777
1623120655.862,-561.035,-46.875,-140.625,-416.992
1623120655.866,-395.020,-33.203,-72.266,-325.195
1623120655.870,437.500,-6.836,51.270,294.922
1623120655.874,437.012,-18.066,12.207,327.637
1623120655.891,-391.602,-42.969,-118.164,-272.461
1623120655.895,-551.758,-43.457,-100.586,-413.086
1623120655.899,236.816,-23.438,35.156,158.691
1623120655.903,558.105,-8.301,63.965,425.293
1623120655.907,-172.852,-34.180,-69.336,-107.910
1623120655.911,-631.836,-49.316,-139.160,-486.816
1623120655.915,1.465,-24.902,-25.391,-27.344
1623120655.918,577.637,-12.695,57.617,432.129
1623120655.922,67.383,-26.367,-30.273,59.082
1623120655.926,-624.023,-41.504,-122.070,-475.098
1623120655.930,-232.910,-27.832,-37.598,-205.566
1623120655.934,570.312,-0.977,89.844,411.133
1623120655.936,222.168,-17.090,-0.977,172.852
1623120655.940,-406.250,-44.922,-115.723,-305.176
1623120655.944,-166.504,-35.156,-64.941,-114.258
1623120655.948,-511.719,-48.340,-125.488,-376.953
1623120655.952,-297.852,-36.133,-49.316,-244.141
1623120655.956,537.109,-8.789,86.914,389.648
1623120655.960,320.312,-23.438,16.602,253.418
1623120655.963,-490.234,-49.805,-129.395,-355.957
1623120655.967,-428.223,-34.668,-82.031,-336.914
1623120655.971,387.695,-14.648,75.195,269.043
1623120655.975,491.699,-21.973,39.551,375.977
1623120655.979,-326.660,-45.410,-97.656,-237.793
1623120655.981,-590.332,-47.852,-100.098,-462.891
1623120655.985,199.219,-18.066,40.039,126.953
1623120655.989,585.449,-17.578,63.965,434.082
1623120655.993,-103.027,-46.387,-78.125,-67.383
1623120655.997,-627.441,-50.781,-122.559,-485.840
1623120656.001,-63.477,-30.762,-12.695,-91.797
1623120656.005,574.219,-20.020,61.523,409.180
1623120656.008,140.137,-39.551,-42.969,110.840
1623120656.012,-598.633,-58.594,-134.766,-457.520
1623120656.016,-302.734,-36.133,-44.922,-260.742
1623120656.020,477.051,-7.812,69.336,345.703
1623120656.024,343.262,-19.043,13.184,271.973
1623120656.026,-468.262,-38.574,-114.746,-352.539
1623120656.030,-489.258,-35.645,-86.426,-397.949
1623120656.034,324.219,-17.578,39.062,217.285
1623120656.038,508.789,-13.672,41.992,396.484
1623120656.042,-267.090,-38.574,-98.633,-195.312
1623120656.046,-596.680,-48.828,-140.625,-473.633
1623120656.050,123.535,-16.602,2.441,75.195
1623120656.053,585.938,2.441,66.895,455.566
1623120656.057,-43.457,-20.508,-57.617,-11.719
1623120656.061,-626.953,-40.039,-141.113,-489.258
1623120656.065,-115.234,-27.344,-41.016,-121.094
1623120656.069,557.129,-9.766,64.453,410.156
1623120656.071,183.594,-20.996,-20.996,151.367
1623120656.075,-572.266,-47.363,-142.578,-440.430
1623120656.079,-346.191,-40.527,-74.219,-303.223
1623120656.083,444.824,-15.137,53.223,316.406
1623120656.087,372.559,-19.531,14.160,296.387
1623120656.091,-448.242,-47.852,-124.023,-331.055
1623120656.095,-417.969,-42.480,-88.867,-299.805
1623120656.098,315.430,-14.648,54.199,247.559
1623120656.102,492.188,-15.137,62.500,382.812
1623120656.106,-216.309,-38.574,-80.566,-147.461
1623120656.110,-615.234,-46.875,-132.324,-482.910
1623120656.114,64.941,-29.297,7.324,12.695
1623120656.117,587.402,-3.906,73.730,425.781
1623120656.121,17.578,-17.090,-59.570,7.324
1623120656.125,-618.164,-42.480,-136.230,-491.699
1623120656.129,-165.039,-24.902,-22.949,-166.016
1623120656.133,546.387,-0.977,72.754,396.973
1623120656.137,245.605,-12.207,-11.230,195.801
1623120656.141,-526.367,-25.879,-118.652,-410.645
1623120656.144,-374.023,-16.602,-50.781,-324.707
1623120656.148,423.828,-3.418,73.730,301.758
1623120656.152,427.246,-12.695,30.273,352.051
1623120656.156,-393.066,-38.086,-110.352,-276.367
1623120656.160,-555.664,-42.480,-97.168,-445.801
1623120656.176,225.098,-20.996,45.410,150.879
1623120656.180,539.551,-15.137,63.477,429.688
1623120656.184,-185.059,-40.039,-66.895,-117.676
1623120656.188,-632.324,-49.316,-107.910,-485.352
1623120656.192,35.645,-18.066,19.043,11.230
1623120656.196,575.684,-7.324,74.219,455.566
1623120656.200,39.551,-31.738,-48.340,59.082
1623120656.203,-618.164,-47.363,-132.812,-472.656
1623120656.207,-226.562,-34.668,-51.270,-202.148
1623120656.211,513.672,-18.555,46.875,387.207
1623120656.215,271.484,-27.832,1.465,234.375
1623120656.219,-528.809,-52.246,-127.930,-403.320
1623120656.222,-438.477,-40.527,-85.938,-370.117
1623120656.226,375.977,-6.836,60.059,258.301
1623120656.230,451.660,-15.137,44.434,352.539
1623120656.234,-351.562,-47.852,-101.074,-263.184
1623120656.238,-579.102,-55.664,-120.605,-470.703
1623120656.242,193.359,-32.227,14.648,121.582
1623120656.246,563.477,-13.672,61.035,437.012
1623120656.249,-120.605,-27.832,-51.758,-76.172
1623120656.253,-618.652,-46.387,-120.117,-488.770
1623120656.257,-30.762,-22.949,-3.906,-59.082
1623120656.261,585.938,-0.977,99.121,440.430
1623120656.265,131.836,-20.508,-1.465,115.723
1623120656.266,-578.125,-46.875,-135.254,-456.543
1623120656.270,-264.160,-37.109,-62.012,-244.141
1623120656.274,482.910,-18.066,59.082,353.027
1623120656.278,328.125,-25.879,-3.418,272.461
1623120656.282,-469.238,-46.875,-127.441,-352.539
1623120656.286,-465.332,-44.434,-93.262,-380.371
1623120656.290,339.844,-20.508,53.223,249.023
1623120656.293,487.793,-15.625,44.922,392.090
1623120656.297,-290.039,-40.039,-111.816,-214.844
1623120656.301,-582.031,-44.922,-105.469,-475.098
1623120656.305,144.043,-19.043,28.320,66.895
1623120656.309,576.172,-10.254,52.734,422.852
1623120656.311,-63.477,-34.180,-69.336,-51.758
1623120656.315,-623.535,-51.270,-132.812,-501.953
1623120656.319,-86.426,-28.809,-21.973,-101.074
1623120656.323,555.664,-6.836,57.617,419.922
1623120656.327,159.668,-19.043,-37.598,137.207
1623120656.331,-516.113,-40.527,-133.789,-406.738
1623120656.335,-281.250,-28.809,-57.129,-257.812
1623120656.338,465.820,-12.207,64.941,336.914
1623120656.342,364.746,-29.297,10.742,298.828
1623120656.346,-454.102,-46.875,-121.094,-347.168
1623120656.350,-494.629,-41.016,-97.656,-417.969
1623120656.354,306.152,-15.137,32.227,203.613
1623120656.356,519.043,-5.859,48.828,400.879
1623120656.360,-243.652,-32.715,-86.426,-187.500
1623120656.364,-598.145,-38.574,-115.234,-484.375
1623120656.368,100.098,-4.883,14.648,45.410
1623120656.372,589.355,11.230,73.242,444.336
1623120656.376,-14.160,-27.832,-57.617,-1.465
1623120656.380,-613.770,-50.293,-149.902,-488.281
1623120656.383,-97.168,-27.344,-44.434,-114.746
1623120656.387,561.523,-2.441,72.266,411.133
1623120656.391,205.078,-14.648,-1.953,156.250
1623120656.395,-552.734,-47.363,-129.883,-439.941
1623120656.399,-365.234,-39.551,-65.918,-317.871
1623120656.401,435.547,-7.812,73.730,316.406
1623120656.405,407.715,-10.254,34.668,321.289
1623120656.409,-405.273,-43.945,-121.582,-313.965
1623120656.413,-521.484,-47.363,-105.469,-435.547
1623120656.417,271.973,-19.043,46.875,168.945
1623120656.421,546.875,-12.695,53.223,416.016
1623120656.425,-194.824,-42.480,-94.238,-141.602
1623120656.428,-616.211,-45.898,-131.348,-494.141
1623120656.432,46.875,-14.160,15.625,-0.488
1623120656.436,587.402,0.000,82.031,442.871
1623120656.440,8.301,-24.414,-58.105,18.555
1623120656.444,-614.746,-36.621,-139.160,-481.934
1623120656.446,-172.363,-9.766,-22.461,-173.828
1623120656.450,536.621,3.418,81.543,385.742
1623120656.454,261.719,-18.066,-9.766,208.496
1623120656.458,-521.484,-37.109,-135.254,-409.180
1623120656.462,-391.602,-23.926,-80.566,-348.633
1623120656.466,410.156,-3.418,43.945,284.180
1623120656.470,440.918,-10.254,17.090,356.445
1623120656.473,-368.164,-25.391,-97.168,-271.484
1623120656.477,-559.570,-31.738,-89.355,-445.312
1623120656.481,209.473,-19.043,31.250,145.508
1623120656.485,545.898,-13.184,53.223,426.758
1623120656.489,-163.574,-35.156,-78.613,-103.516
1623120656.491,-629.395,-40.039,-127.441,-488.281
1623120656.495,-13.184,-19.531,-9.766,-42.480
1623120656.499,565.430,-8.301,58.105,420.898
1623120656.503,79.102,-20.508,-35.645,73.242
1623120656.507,-607.910,-43.945,-131.348,-468.262
1623120656.511,-250.488,-40.527,-69.336,-216.797
1623120656.515,498.047,-13.672,51.758,375.488
1623120656.518,285.156,-20.508,3.418,244.629
1623120656.522,-511.230,-47.363,-127.930,-380.371
1623120656.526,-447.754,-43.457,-92.773,-362.793
1623120656.530,361.816,-15.625,45.898,267.090
1623120656.534,472.656,-14.160,52.734,377.441
1623120656.551,-307.129,-40.527,-90.820,-232.910
1623120656.555,-567.383,-44.922,-118.652,-464.355
1623120656.559,169.922,-19.531,30.273,95.703
1623120656.563,566.895,-10.742,66.406,435.059
1623120656.567,-107.422,-42.969,-83.984,-66.895
1623120656.571,-636.230,-59.570,-147.461,-499.512
1623120656.575,-69.824,-23.926,-11.230,-85.449
1623120656.578,564.941,2.441,83.008,421.387
1623120656.582,127.441,-26.855,-41.016,116.211
1623120656.586,-602.539,-56.641,-166.016,-452.637
1623120656.590,-294.922,-26.855,-62.012,-263.184
1623120656.594,496.094,-5.859,70.801,356.445
1623120656.611,355.957,-29.297,11.719,293.457
1623120656.615,-476.562,-52.246,-116.211,-359.863
1623120656.619,-492.188,-44.922,-80.566,-406.738
1623120656.623,319.336,-20.508,56.152,225.586
1623120656.627,457.031,-19.531,32.715,372.559
1623120656.631,-296.875,-42.480,-112.793,-205.078
1623120656.635,-597.168,-47.363,-120.117,-473.145
1623120656.638,104.980,-24.902,16.113,52.246
1623120656.642,561.523,-18.555,62.012,439.453
1623120656.646,-57.129,-42.480,-55.664,-17.578
1623120656.650,-624.512,-50.781,-117.188,-492.676
1623120656.654,-108.398,-24.902,-6.348,-124.512
1623120656.641,551.758,-14.160,72.266,423.828
1623120656.645,184.570,-24.414,-9.277,172.852
1623120656.649,-562.988,-37.109,-120.605,-426.270
1623120656.653,-333.008,-27.832,-59.082,-289.551
1623120656.657,463.867,-6.348,63.965,318.359
1623120656.661,393.555,-12.695,12.695,270.020
1623120656.665,-430.176,-40.039,-114.258,-344.238
1623120656.668,-514.648,-48.828,-94.727,-426.758
1623120656.672,283.691,-24.414,35.156,186.035
1623120656.676,523.926,-17.578,47.852,406.250
1623120656.680,-226.562,-44.922,-73.730,-176.758
1623120656.684,-606.445,-55.664,-120.605,-500.000
1623120656.686,74.219,-27.832,-14.160,20.508
1623120656.690,584.473,-7.324,74.219,442.871
1623120656.694,7.812,-26.855,-33.203,20.508
1623120656.698,-614.746,-47.363,-130.859,-479.004
1623120656.702,-149.902,-23.438,-27.832,-159.180
1623120656.706,551.758,-0.977,66.895,396.484
1623120656.710,236.816,-13.672,-11.719,195.312
1623120656.713,-534.668,-33.691,-133.789,-410.645
1623120656.717,-378.906,-31.250,-74.707,-322.266
1623120656.721,419.434,-0.977,71.777,304.199
1623120656.725,431.641,-12.695,31.738,346.191
1623120656.729,-375.977,-49.805,-109.863,-280.762
1623120656.731,-529.785,-40.039,-78.613,-428.223
1623120656.735,250.488,-8.301,62.500,167.969
1623120656.739,555.176,-10.742,52.734,433.105
1623120656.743,-171.387,-38.574,-83.008,-110.840
1623120656.747,-615.723,-42.969,-119.629,-482.910
1623120656.751,49.805,-10.742,9.277,8.789
1623120656.755,586.914,1.953,70.801,451.172
1623120656.758,39.551,-30.273,-66.895,52.246
1623120656.762,-614.746,-47.363,-142.090,-478.027
1623120656.766,-216.309,-28.809,-37.598,-198.242
1623120656.770,518.555,-2.930,64.941,379.883
1623120656.774,277.832,-17.578,5.371,220.215
1623120656.776,-519.531,-47.363,-115.723,-394.043
1623120656.780,-428.223,-37.109,-81.055,-344.238
1623120656.784,385.742,-9.277,43.945,282.715
1623120656.788,453.125,-12.695,31.250,363.281
1623120656.792,-353.516,-44.434,-114.746,-260.742
1623120656.796,-568.848,-50.781,-118.164,-465.332
1623120656.800,184.082,-30.762,11.719,113.281
1623120656.803,542.969,-18.066,48.340,431.152
1623120656.807,-142.578,-30.762,-48.340,-83.008
1623120656.811,-644.043,-47.363,-117.188,-490.723
1623120656.815,-52.246,-29.785,-14.160,-53.711
1623120656.819,555.664,-7.324,82.520,438.477
1623120656.821,96.191,-22.949,-19.043,99.609
1623120656.825,-606.934,-48.340,-143.066,-465.332
1623120656.829,-265.137,-33.691,-64.941,-219.727
1623120656.833,498.047,-4.395,74.707,381.348
1623120656.837,274.414,-16.113,8.789,239.746
1623120656.841,-514.648,-52.246,-144.531,-374.023
1623120656.845,-463.379,-47.852,-102.539,-368.652
1623120656.848,342.773,-12.207,58.594,245.117
1623120656.852,485.840,-15.625,49.316,381.836
1623120656.856,-306.641,-46.387,-103.516,-218.750
1623120656.860,-592.773,-39.062,-120.117,-460.938
1623120656.864,140.137,-10.254,22.949,83.984
1623120656.867,565.918,-5.371,62.012,430.176
1623120656.871,-81.543,-34.180,-81.543,-56.641
1623120656.875,-633.789,-55.176,-152.832,-511.719
1623120656.879,-84.961,-27.344,-22.461,-115.723
1623120656.883,560.059,-10.254,63.965,404.297
1623120656.887,138.672,-37.598,-50.293,111.816
1623120656.891,-587.891,-50.293,-136.230,-456.055
1623120656.894,-310.547,-26.855,-37.598,-270.508
1623120656.898,463.379,0.488,74.707,335.449
1623120656.902,368.652,-14.160,4.395,295.410
1623120656.906,-441.895,-47.363,-118.164,-317.871
1623120656.910,-510.254,-43.457,-70.312,-399.414
1623120656.927,291.992,-10.254,56.152,205.078
1623120656.931,504.883,-11.230,40.039,405.273
1623120656.935,-259.766,-41.504,-92.773,-167.969
1623120656.939,-601.074,-48.340,-108.398,-466.797
1623120656.943,107.422,-24.902,12.207,53.711
1623120656.947,587.402,-14.648,57.617,454.102
1623120656.951,-18.555,-30.762,-48.340,12.207
1623120656.954,-616.211,-43.945,-109.863,-476.074
1623120656.958,-132.812,-30.762,-16.113,-131.348
1623120656.962,513.672,-12.207,59.570,395.020
1623120656.966,192.383,-20.996,1.465,171.387
1623120656.970,-543.457,-46.387,-107.910,-416.504
1623120656.971,-343.750,-36.621,-74.707,-295.410
1623120656.975,452.148,-18.066,47.852,321.777
1623120656.979,408.203,-27.344,22.461,328.613
1623120656.983,-398.438,-46.875,-113.770,-296.387
1623120656.987,-515.625,-39.551,-108.887,-418.945
1623120656.991,272.461,-8.789,31.738,192.871
1623120656.995,543.457,-6.836,58.105,433.594
1623120656.998,-205.078,-35.645,-85.938,-133.789
1623120657.002,-619.141,-51.758,-140.137,-478.516
1623120657.006,48.828,-22.949,13.184,22.461
1623120657.010,579.590,1.465,92.773,460.938
1623120657.014,14.648,-36.621,-48.340,42.969
1623120657.016,-630.859,-61.523,-155.273,-471.680
1623120657.020,-195.801,-28.809,-40.039,-157.227
1623120657.024,528.809,-1.465,83.008,409.180
1623120657.028,252.441,-18.066,2.930,228.516
1623120657.032,-528.320,-41.016,-139.160,-378.906
1623120657.036,-397.949,-30.273,-93.262,-308.105
1623120657.040,403.320,-2.441,53.711,315.430
1623120657.043,435.059,-8.789,31.738,369.141
1623120657.047,-370.605,-42.969,-131.836,-254.395
1623120657.051,-547.852,-38.574,-115.234,-428.223
1623120657.055,228.027,-6.348,48.340,151.367
1623120657.059,561.035,0.977,62.012,431.152
1623120657.061,-153.809,-33.691,-87.402,-104.980
1623120657.065,-625.488,-47.363,-139.160,-495.117
1623120657.069,-0.488,-20.996,-22.949,-41.016
1623120657.073,581.055,-7.324,57.129,427.246
1623120657.077,79.102,-27.344,-42.969,66.406
1623120657.081,-581.543,-44.922,-138.672,-460.449
1623120657.085,-218.750,-23.438,-28.809,-206.543
1623120657.088,513.672,-7.324,83.496,376.465
1623120657.092,297.852,-23.438,4.395,238.281
1623120657.096,-510.742,-49.805,-121.094,-401.855
1623120657.100,-448.242,-45.898,-90.332,-383.301
1623120657.104,363.281,-19.043,45.410,245.117
1623120657.106,462.891,-14.648,47.363,360.352
1623120657.110,-338.867,-32.715,-91.309,-247.559
1623120657.114,-591.797,-39.062,-112.305,-470.215
1623120657.118,169.434,-8.301,20.996,104.004
1623120657.122,563.477,1.465,62.012,429.688
1623120657.126,-161.621,-36.621,-81.543,-118.164
1623120657.130,-652.832,-47.363,-140.625,-515.137
1623120657.133,-57.129,-33.691,-13.672,-73.242
1623120657.137,560.059,-13.672,92.773,413.574
1623120657.141,136.719,-24.414,-16.602,118.652
1623120657.145,-579.102,-50.781,-149.414,-443.359
1623120657.149,-281.738,-34.180,-43.457,-252.930
1623120657.151,476.562,-4.395,87.891,339.844
1623120657.155,327.637,-13.184,11.230,258.301
1623120657.159,-482.910,-44.434,-127.930,-374.023
1623120657.163,-482.422,-35.156,-87.891,-412.598
1623120657.167,339.355,-0.488,56.641,216.309
1623120657.171,507.812,-8.789,48.340,378.418
1623120657.175,-282.715,-48.828,-103.516,-215.820
1623120657.178,-589.355,-46.387,-116.211,-469.727
1623120657.182,142.578,-11.230,33.691,68.848
1623120657.186,584.961,-9.766,70.801,435.547
1623120657.190,-49.316,-35.645,-67.871,-28.809
1623120657.194,-623.535,-44.922,-140.625,-492.188
1623120657.196,-96.191,-22.461,-22.949,-111.816
1623120657.200,570.312,-7.812,71.777,415.039
1623120657.204,186.035,-29.297,-20.996,151.367
1623120657.208,-564.941,-56.152,-125.488,-433.105
1623120657.212,-320.801,-36.621,-55.176,-274.414
1623120657.216,471.191,-12.207,52.246,344.238
1623120657.220,383.789,-34.180,0.977,317.383
1623120657.223,-437.988,-50.781,-108.887,-313.965
1623120657.227,-511.230,-47.363,-90.820,-406.250
1623120657.231,286.621,-24.414,32.715,206.055
1623120657.235,524.414,-10.742,51.270,416.016
1623120657.239,-227.051,-32.715,-78.125,-167.969
1623120657.242,-607.422,-52.246,-121.582,-492.188
1623120657.246,82.031,-27.832,4.395,24.902
1623120657.250,584.473,-19.043,67.871,436.523
1623120657.254,-6.348,-47.363,-44.922,11.230
1623120657.258,-625.977,-57.129,-134.766,-487.793
1623120657.262,-155.273,-36.133,-47.363,-166.504
1623120657.266,544.434,-14.648,62.988,397.461
1623120657.269,232.910,-23.438,3.418,186.523
1623120657.273,-539.551,-42.480,-126.465,-420.410
1623120657.277,-369.141,-33.691,-93.750,-312.012
1623120657.281,427.734,-18.555,41.992,305.664
1623120657.285,413.086,-21.973,37.598,332.031
1623120657.301,-403.320,-49.316,-111.328,-297.363
1623120657.305,-549.805,-50.293,-122.070,-450.195
1623120657.309,235.352,-21.973,34.180,136.719
1623120657.313,528.320,-17.578,58.105,393.555
1623120657.317,-193.848,-33.203,-81.055,-134.277
1623120657.321,-598.145,-39.551,-137.207,-470.703
1623120657.325,32.227,-13.672,-14.648,-13.184
1623120657.328,571.777,-1.465,70.801,425.781
1623120657.332,46.875,-30.273,-39.551,57.129
1623120657.336,-616.211,-49.805,-147.461,-458.008
1623120657.340,-213.867,-30.273,-38.086,-184.082
1623120657.344,513.672,-12.695,79.590,379.883
1623120657.346,268.066,-18.555,6.836,228.027
1623120657.350,-523.926,-38.086,-116.699,-382.812
1623120657.354,-421.875,-33.203,-75.684,-335.938
1623120657.358,400.391,-1.953,54.199,292.969
1623120657.362,465.332,-0.977,22.949,365.723
1623120657.366,-354.980,-35.645,-112.793,-263.184
1623120657.370,-576.660,-41.504,-102.051,-462.891
1623120657.373,198.730,-14.160,45.898,116.699
1623120657.377,560.547,-14.160,59.082,421.387
1623120657.381,-135.254,-40.039,-78.125,-100.586
1623120657.385,-618.164,-41.504,-113.281,-499.512
1623120657.389,-16.113,-12.207,6.348,-58.105
1623120657.391,574.707,-2.441,71.289,423.828
1623120657.395,102.539,-21.973,-20.996,81.055
1623120657.399,-593.750,-39.551,-125.488,-479.492
1623120657.403,-257.812,-26.367,-66.406,-249.512
1623120657.407,509.277,-10.254,49.316,348.145
1623120657.411,332.031,-10.742,0.977,250.488
1623120657.415,-487.793,-35.645,-133.789,-377.441
1623120657.418,-459.961,-44.922,-98.145,-391.602
1623120657.422,356.934,-20.996,32.715,247.070
1623120657.426,483.398,-13.184,42.480,388.184
1623120657.430,-309.570,-39.062,-88.379,-207.520
1623120657.434,-589.844,-43.457,-112.793,-446.777
1623120657.436,148.438,-18.066,30.273,96.191
1623120657.440,578.125,-3.418,75.684,445.801
1623120657.444,-74.707,-25.391,-70.312,-37.109
1623120657.448,-634.766,-53.711,-155.762,-485.840
1623120657.452,-71.777,-28.809,-31.738,-83.496
1623120657.456,591.309,-2.930,69.824,442.383
1623120657.460,175.293,-20.996,-25.879,150.391
1623120657.463,-561.035,-41.504,-140.625,-438.477
1623120657.467,-283.203,-24.902,-59.570,-262.695
1623120657.471,489.746,1.953,67.383,340.820
1623120657.475,371.582,-7.324,7.324,287.109
1623120657.479,-448.242,-40.039,-130.371,-347.656
1623120657.481,-487.793,-42.480,-100.586,-408.691
1623120657.485,324.219,-18.555,46.387,211.914
1623120657.489,520.996,-18.066,42.969,396.484
1623120657.493,-253.418,-42.480,-99.121,-178.711
1623120657.497,-603.516,-41.504,-113.281,-464.355
1623120657.501,107.910,-10.254,17.578,66.406
1623120657.505,591.797,0.488,64.941,456.543
1623120657.508,-21.973,-22.461,-68.359,3.906
1623120657.512,-622.070,-36.133,-129.883,-473.145
1623120657.516,-127.441,-25.879,-15.625,-124.023
1623120657.520,553.711,-9.766,79.102,418.457
1623120657.524,199.707,-25.391,-13.184,175.781
1623120657.526,-569.824,-42.969,-128.418,-424.316
1623120657.530,-361.816,-24.902,-61.035,-297.852
1623120657.534,442.383,2.441,61.035,319.336
1623120657.538,395.020,-5.859,27.344,314.941
1623120657.542,-424.805,-29.785,-106.934,-316.895
1623120657.546,-532.227,-24.902,-111.328,-430.664
1623120657.550,265.137,-10.254,15.625,175.293
1623120657.553,534.668,-13.184,43.945,407.715
1623120657.557,-203.613,-33.203,-73.730,-154.297
1623120657.561,-604.004,-42.480,-124.512,-490.723
1623120657.565,61.523,-24.414,2.441,11.719
1623120657.569,583.984,-9.766,82.031,439.453
1623120657.571,29.785,-24.902,-35.156,28.320
1623120657.575,-620.605,-48.340,-142.578,-485.352
1623120657.579,-194.336,-31.250,-55.664,-181.641
1623120657.583,532.227,-1.953,67.871,385.254
1623120657.587,245.605,-19.043,-0.977,201.172
1623120657.591,-545.410,-47.852,-137.695,-401.855
1623120657.595,-405.762,-38.086,-89.844,-317.871
1623120657.598,407.227,-2.441,66.406,300.293
1623120657.602,436.035,-1.953,45.898,346.680
1623120657.606,-376.953,-35.645,-114.258,-276.855
1623120657.610,-556.152,-40.527,-119.629,-447.754
1623120657.614,215.332,-17.090,29.297,139.648
1623120657.616,536.133,-12.695,55.664,414.062
1623120657.620,-174.805,-33.203,-87.891,-122.070
1623120657.624,-643.555,-45.898,-135.742,-497.070
1623120657.628,-14.648,-28.809,-0.488,-39.551
1623120657.632,578.125,-10.254,67.383,428.711
1623120657.636,48.828,-30.762,-60.547,51.758
1623120657.640,-621.582,-46.875,-145.508,-476.074
1623120657.643,-242.188,-28.809,-37.598,-219.727
1623120657.647,499.023,-6.836,70.801,362.793
1623120657.651,289.062,-21.973,-1.953,250.977
1623120657.655,-527.344,-44.922,-122.559,-374.023
1623120657.659,-452.148,-34.180,-65.430,-359.375
1623120657.676,376.953,-17.578,67.383,266.113
1623120657.680,476.074,-22.461,31.738,368.652
1623120657.684,-318.359,-42.969,-98.145,-236.328
1623120657.688,-572.266,-50.781,-106.934,-460.938
1623120657.692,170.410,-26.367,19.531,100.098
1623120657.696,555.664,-17.090,49.316,434.082
1623120657.700,-119.629,-43.457,-80.566,-63.477
1623120657.703,-634.277,-46.387,-130.371,-479.492
1623120657.707,-59.082,-24.902,-13.672,-61.035
1623120657.711,564.453,-14.648,60.059,441.406
1623120657.715,119.629,-26.367,-21.484,126.953
1623120657.719,-597.656,-47.363,-128.418,-438.965
1623120657.721,-284.668,-37.598,-52.246,-230.957
1623120657.725,482.422,-14.648,71.289,363.281
1623120657.729,327.637,-27.344,5.371,280.762
1623120657.733,-482.910,-47.363,-131.348,-351.074
1623120657.737,-476.074,-42.969,-100.586,-392.090
1623120657.741,349.121,-18.555,41.992,241.211
1623120657.745,505.371,-11.719,53.223,399.414
1623120657.748,-284.668,-36.621,-78.613,-198.730
1623120657.752,-594.238,-43.457,-118.652,-464.844
1623120657.756,131.836,-20.508,9.766,78.613
1623120657.760,581.055,-5.859,78.125,450.684
1623120657.764,-54.199,-29.297,-60.059,-18.555
1623120657.766,-626.465,-41.504,-140.137,-474.609
1623120657.770,-100.098,-22.949,-10.254,-100.586
1623120657.774,563.477,-7.812,86.426,416.504
1623120657.778,173.340,-24.902,-18.066,145.020
1623120657.782,-557.617,-40.039,-135.254,-427.734
1623120657.786,-315.918,-26.367,-61.523,-270.020
1623120657.790,458.984,-7.812,73.242,333.008
1623120657.793,376.953,-17.578,24.902,302.246
1623120657.797,-436.523,-48.828,-137.695,-316.406
1623120657.801,-511.719,-41.504,-98.633,-403.809
1623120657.805,293.945,-8.789,51.758,199.707
1623120657.809,524.902,-8.301,40.039,397.949
1623120657.811,-241.699,-38.574,-97.656,-177.246
1623120657.815,-610.840,-35.645,-110.352,-479.492
1623120657.819,74.219,-8.789,18.555,28.809
1623120657.823,567.871,-7.812,62.500,426.758
1623120657.827,-19.043,-36.621,-52.246,-6.348
1623120657.831,-637.207,-50.293,-132.812,-495.605
1623120657.835,-162.109,-19.043,-33.691,-151.855
1623120657.838,541.016,-2.930,55.176,406.738
1623120657.842,219.727,-26.367,-3.906,183.105
1623120657.846,-511.230,-42.969,-93.262,-396.484
1623120657.850,-364.258,-32.715,-62.012,-310.547
1623120657.854,409.668,0.977,54.688,284.668
1623120657.857,393.555,-14.160,35.645,307.129
1623120657.861,-442.871,-34.180,-90.820,-333.496
1623120657.865,-585.449,-23.926,-87.891,-489.746
1623120657.869,197.266,-0.488,34.180,97.656
1623120657.873,481.445,34.180,71.289,346.680
1623120657.877,-291.992,11.230,-49.805,-234.375
1623120657.881,-731.934,3.418,-111.328,-604.492
1623120657.884,-99.121,41.016,5.371,-142.090
1623120657.888,414.551,75.195,110.352,273.438
1623120657.892,-146.484,62.012,-2.441,-148.926
1623120657.896,-837.891,48.340,-106.445,-700.684
1623120657.900,-449.219,82.031,-12.695,-441.406
1623120657.901,269.531,108.887,91.797,109.375
1623120657.905,1.953,92.285,39.551,-62.500
1623120657.909,-797.852,62.012,-69.336,-672.852
1623120657.913,-701.660,69.336,-9.277,-627.441
1623120657.917,117.676,97.656,130.371,-0.977
1623120657.921,195.801,84.961,98.145,87.402
1623120657.925,-595.703,39.551,-61.523,-508.789
1623120657.928,-792.480,35.645,-84.473,-679.199
1623120657.932,-0.488,73.730,80.078,-91.797
1623120657.936,391.113,77.637,102.051,238.281
1623120657.940,-290.039,32.715,-55.176,-259.766
1623120657.944,-764.648,12.207,-95.703,-645.508
1623120657.946,-130.371,34.668,20.508,-179.688
1623120657.950,495.117,35.645,81.543,336.914
1623120657.954,36.133,1.465,-47.363,17.578
1623120657.958,-649.902,-29.297,-138.184,-522.461
1623120657.962,-279.297,-14.648,-31.250,-259.277
1623120657.966,502.441,-9.277,67.383,352.539
1623120657.970,334.473,-34.180,-25.391,266.113
1623120657.973,-460.938,-55.176,-142.090,-336.426
1623120657.977,-406.250,-51.758,-91.797,-323.242
1623120657.981,421.875,-25.879,43.945,304.199
1623120657.985,541.504,-39.062,46.875,424.805
1623120657.989,-243.652,-72.266,-115.723,-159.180
1623120657.992,-500.488,-68.359,-138.184,-382.812
1623120657.996,246.582,-43.945,17.578,167.480
1623120658.000,664.551,-49.805,57.129,520.020
1623120658.004,11.230,-77.148,-83.496,48.828
1623120658.008,-528.809,-77.148,-145.508,-385.254
1623120658.012,30.273,-52.246,-34.668,25.391
1623120658.016,670.898,-34.180,44.434,539.551
1623120658.019,244.629,-50.781,-40.039,231.934
1623120658.023,-485.352,-78.613,-129.883,-338.867
1623120658.027,-202.148,-70.312,-67.383,-151.855
1623120658.031,571.777,-48.340,41.504,441.895
1623120658.035,445.801,-55.664,10.742,378.418
1623120658.051,-374.023,-82.031,-124.023,-251.953
1623120658.055,-404.297,-78.125,-109.863,-309.570
1623120658.059,403.809,-45.410,39.062,306.641
1623120658.063,597.168,-38.086,53.711,486.328
1623120658.067,-179.199,-66.406,-92.773,-100.586
1623120658.071,-520.508,-72.266,-133.301,-383.301
1623120658.075,189.941,-40.039,20.508,146.484
1623120658.078,657.715,-43.457,83.496,521.484
1623120658.082,35.645,-77.637,-51.758,69.824
1623120658.086,-565.918,-90.820,-141.602,-403.809
1623120658.090,-59.570,-59.082,-19.531,-52.734
1623120658.094,619.629,-37.109,85.449,482.910
1623120658.096,228.516,-53.711,-16.113,215.820
1623120658.100,-507.324,-72.754,-128.418,-361.328
1623120658.104,-276.367,-54.199,-58.105,-227.539
1623120658.108,514.648,-25.879,72.266,380.859
1623120658.112,457.520,-40.039,21.484,380.371
1623120658.116,-379.395,-77.637,-126.953,-255.371
1623120658.120,-479.492,-75.195,-93.262,-367.188
1623120658.123,324.707,-35.645,61.035,236.816
1623120658.127,577.637,-31.250,64.941,466.797
1623120658.131,-175.293,-61.035,-81.055,-94.727
1623120658.135,-580.566,-65.430,-110.352,-429.688
1623120658.139,97.656,-40.527,36.621,69.336
1623120658.141,632.324,-25.879,81.055,499.512
1623120658.145,64.941,-50.781,-53.711,87.402
1623120658.149,-580.078,-70.312,-112.793,-430.664
1623120658.153,-131.836,-54.199,-15.625,-117.676
1623120658.157,584.473,-33.203,80.078,457.520
1623120658.161,281.250,-47.363,9.766,260.742
1623120658.165,-502.930,-72.266,-112.793,-359.863
1623120658.168,-355.469,-57.617,-57.129,-286.133
1623120658.172,449.219,-25.391,64.941,339.355
1623120658.176,467.773,-30.273,48.828,379.883
1623120658.180,-353.027,-61.523,-96.191,-253.418
1623120658.184,-539.062,-58.594,-103.027,-417.480
1623120658.187,245.605,-33.203,37.598,161.133
1623120658.191,565.918,-21.973,67.871,426.270
1623120658.195,-160.156,-37.109,-55.664,-102.051
1623120658.199,-620.605,-50.293,-114.258,-476.562
1623120658.203,17.578,-29.297,5.859,-23.926
1623120658.207,600.098,-14.160,74.219,445.801
1623120658.211,81.543,-44.922,-39.551,79.102
1623120658.214,-601.562,-65.918,-141.602,-459.473
1623120658.218,-208.008,-38.574,-38.086,-181.152
1623120658.222,543.945,-17.578,97.656,398.926
1623120658.226,312.988,-30.273,9.766,257.812
1623120658.230,-496.094,-49.805,-120.605,-361.816
1623120658.231,-419.434,-34.180,-59.570,-345.215
1623120658.235,403.320,-9.277,73.242,273.926
1623120658.239,499.023,-17.578,49.805,385.742
1623120658.243,-313.477,-51.270,-91.309,-228.027
1623120658.247,-569.336,-56.641,-88.379,-452.148
1623120658.251,202.637,-26.855,35.645,123.535
1623120658.255,579.590,-20.020,55.176,437.012
1623120658.258,-99.609,-53.223,-77.148,-47.852
1623120658.262,-548.828,-59.570,-116.699,-425.293
1623120658.266,-6.348,-29.785,-2.930,-43.945
1623120658.270,584.961,-16.602,72.266,437.500
1623120658.274,147.949,-36.621,-20.020,131.836
1623120658.276,-584.961,-57.129,-115.723,-438.965
1623120658.280,-265.137,-38.086,-34.180,-219.727
1623120658.284,515.625,-5.859,74.219,380.371
1623120658.288,358.398,-18.066,14.160,294.434
1623120658.292,-459.961,-50.781,-120.117,-329.102
1623120658.296,-455.566,-40.527,-97.656,-363.770
1623120658.300,352.051,-16.602,31.250,252.930
1623120658.303,508.789,-18.066,40.039,408.203
1623120658.307,-270.020,-34.668,-74.707,-185.059
1623120658.311,-576.172,-39.551,-98.145,-441.895
1623120658.315,146.484,-27.832,12.695,95.703
1623120658.319,576.172,-17.578,60.547,452.637
1623120658.321,-64.453,-35.645,-54.199,-22.949
1623120658.325,-629.395,-52.246,-135.742,-480.469
1623120658.329,-94.238,-25.391,-30.762,-96.680
1623120658.333,567.383,-4.395,74.707,418.945
1623120658.337,168.945,-21.973,-19.043,148.926
1623120658.341,-567.871,-45.898,-151.855,-421.387
1623120658.345,-326.172,-41.504,-87.402,-269.043
1623120658.348,468.750,-10.742,67.383,343.262
1623120658.352,390.137,-15.625,30.762,320.312
1623120658.356,-438.477,-51.270,-125.977,-311.035
1623120658.360,-509.766,-48.828,-114.258,-400.879
1623120658.364,298.340,-20.020,33.691,204.590
1623120658.381,519.043,-23.926,45.898,403.809
1623120658.385,-253.906,-52.734,-107.910,-170.898
1623120658.389,-617.676,-51.270,-141.602,-476.074
1623120658.393,86.914,-20.508,-1.953,31.250
1623120658.397,588.379,-2.441,60.059,436.523
1623120658.401,-12.207,-39.062,-72.266,5.859
1623120658.405,-623.535,-59.082,-143.555,-493.164
1623120658.408,-125.977,-6.348,-4.883,-148.926
1623120658.412,575.195,11.230,94.238,408.203
1623120658.416,233.398,-30.273,-26.855,179.688
1623120658.420,-550.293,-53.223,-147.949,-426.758
1623120658.424,-373.047,-37.109,-59.570,-325.195
1623120658.426,436.523,-10.742,75.195,296.387
1623120658.430,415.527,-17.578,24.902,314.941
1623120658.434,-403.320,-41.016,-118.652,-308.105
1623120658.438,-542.480,-37.109,-104.980,-441.895
1623120658.442,250.488,-10.742,33.203,155.273
1623120658.446,536.621,-17.090,43.457,409.180
1623120658.450,-203.613,-40.039,-84.473,-133.789
1623120658.453,-626.953,-36.133,-105.469,-484.375
1623120658.457,28.809,-20.996,8.789,-15.137
1623120658.461,586.914,-13.184,54.688,432.129
1623120658.465,57.129,-15.137,-19.531,60.547
1623120658.469,-615.723,-40.527,-110.840,-467.285
1623120658.471,-206.543,-31.738,-41.992,-185.547
1623120658.475,530.762,2.930,77.637,392.578
1623120658.479,253.906,-15.625,-3.418,215.820
1623120658.483,-544.922,-43.945,-138.672,-406.250
1623120658.487,-418.945,-37.598,-88.867,-356.445
1623120658.491,400.879,-13.184,39.062,261.719
1623120658.495,449.707,-10.254,25.391,341.797
1623120658.498,-355.469,-33.691,-106.445,-266.113
1623120658.502,-554.199,-41.504,-116.211,-452.637
1623120658.506,220.703,-16.602,21.973,126.953
1623120658.510,574.707,0.000,68.359,424.805
1623120658.514,-131.348,-25.391,-59.570,-86.426
1623120658.516,-622.070,-44.434,-126.953,-485.840
1623120658.520,-18.066,-20.508,-1.465,-47.363
1623120658.524,584.961,-1.465,81.543,437.500
1623120658.528,104.492,-24.414,-29.785,88.867
1623120658.532,-578.125,-44.434,-132.812,-451.172
1623120658.536,-237.305,-28.320,-49.316,-214.844
1623120658.540,514.648,-3.418,73.242,368.652
1623120658.543,324.707,-15.625,13.672,254.883
1623120658.547,-495.605,-43.945,-126.465,-357.910
1623120658.551,-455.078,-26.855,-74.219,-360.352
1623120658.555,365.723,-1.953,69.336,247.070
1623120658.559,488.281,-5.859,65.430,369.629
1623120658.561,-316.895,-29.785,-81.543,-230.957
1623120658.565,-603.516,-38.086,-108.887,-464.355
1623120658.569,150.879,-6.836,27.832,89.844
1623120658.573,567.383,-3.418,74.219,432.617
1623120658.577,-103.027,-34.180,-44.922,-50.293
1623120658.581,-634.766,-45.898,-117.188,-482.910
1623120658.585,-68.359,-23.438,-7.812,-85.449
1623120658.588,569.336,-8.789,67.871,418.945
1623120658.592,144.531,-29.297,-25.879,130.859
1623120658.596,-580.078,-49.316,-123.535,-428.223
1623120658.600,-298.340,-33.203,-49.805,-242.188
1623120658.604,463.867,-11.230,67.871,346.680
1623120658.606,333.008,-25.879,12.207,277.344
1623120658.610,-482.422,-48.828,-114.746,-348.633
1623120658.614,-504.395,-45.898,-93.262,-397.949
1623120658.618,308.594,-29.297,39.551,216.797
1623120658.622,499.023,-21.973,53.223,381.836
1623120658.626,-274.414,-39.551,-88.379,-200.684
1623120658.630,-609.375,-44.434,-122.559,-476.562
1623120658.633,100.586,-21.484,-5.371,45.410
1623120658.637,578.125,1.953,68.848,424.316
1623120658.641,-36.133,-18.066,-37.598,-23.438
1623120658.645,-629.395,-43.945,-145.996,-496.582
1623120658.649,-117.188,-23.438,-49.316,-146.973
1623120658.651,566.406,4.395,60.547,394.531
1623120658.655,199.707,-11.230,-23.926,157.227
1623120658.659,-560.059,-38.574,-134.766,-431.152
1623120658.663,-340.820,-26.367,-59.570,-295.898
1623120658.667,451.172,-10.742,72.266,312.012
1623120658.671,398.438,-20.020,22.461,305.176
1623120658.675,-420.898,-46.875,-131.836,-312.012
1623120658.678,-524.414,-55.664,-120.605,-409.668
1623120658.682,283.203,-13.672,47.852,197.266
1623120658.686,539.551,-9.766,56.152,410.156
1623120658.690,-217.285,-44.922,-95.215,-158.691
1623120658.694,-615.723,-43.945,-113.770,-478.027
1623120658.696,57.129,-21.973,17.578,17.578
1623120658.700,573.730,-18.066,66.895,435.059
1623120658.704,10.254,-35.645,-60.547,39.551
1623120658.708,-621.582,-46.875,-134.766,-459.961
1623120658.712,-171.875,-28.809,-33.203,-163.086
1623120658.716,551.270,-16.113,53.711,391.602
1623120658.720,256.348,-35.156,-20.020,202.637
1623120658.723,-528.320,-46.875,-119.141,-404.785
1623120658.727,-380.859,-31.250,-62.012,-330.566
1623120658.731,426.270,-10.254,60.547,288.086
1623120658.735,439.941,-12.695,28.809,333.984
1623120658.739,-381.836,-36.133,-111.328,-291.504
1623120658.741,-554.199,-35.645,-103.027,-445.801
1623120658.745,231.445,-11.230,32.715,138.672
1623120658.749,552.734,-17.090,58.594,404.297
1623120658.753,-173.340,-51.758,-75.195,-132.812
1623120658.757,-635.742,-56.152,-125.977,-500.000
1623120658.761,7.812,-25.391,-11.719,-28.809
1623120658.765,585.449,-10.254,54.199,422.852
1623120658.768,67.871,-28.320,-45.898,56.641
1623120658.772,-608.887,-45.410,-137.695,-467.285
1623120658.776,-228.027,-24.902,-49.805,-209.473
1623120658.780,515.137,-3.418,61.523,356.934
1623120658.784,289.551,-15.137,7.324,218.262
1623120658.816,-516.602,-42.480,-121.582,-389.160
1623120658.820,-438.965,-43.945,-87.891,-363.770
1623120658.824,387.695,-16.602,49.316,255.859
1623120658.828,462.402,-11.719,27.832,342.773
1623120658.832,-341.797,-33.691,-109.863,-257.812
1623120658.836,-454.590,-36.621,-104.004,-369.141
1623120658.840,234.863,-13.672,17.090,145.508
1623120658.843,548.828,-4.395,48.828,410.156
1623120658.847,-104.980,-28.320,-74.707,-75.684
1623120658.851,-634.766,-49.316,-145.508,-498.535
1623120658.855,-43.457,-26.855,-19.531,-79.102
1623120658.859,578.613,-0.488,75.684,406.738
1623120658.846,126.465,-24.902,-34.180,100.586
1623120658.850,-600.098,-56.641,-142.578,-453.613
1623120658.854,-278.809,-36.133,-54.199,-242.188
1623120658.858,480.957,-7.812,62.500,343.750
1623120658.862,279.785,-15.625,-1.465,227.539
1623120658.866,-506.348,-41.992,-131.836,-370.117
1623120658.870,-486.328,-40.527,-87.891,-385.254
1623120658.873,326.660,-13.672,53.711,219.238
1623120658.877,496.582,-8.789,48.828,367.676
1623120658.881,-297.363,-33.691,-79.590,-217.285
1623120658.885,-612.793,-48.828,-113.281,-476.074
1623120658.889,118.652,-24.902,18.066,61.523
1623120658.891,566.895,-7.812,59.082,430.664
1623120658.895,-69.336,-24.414,-60.547,-27.344
1623120658.899,-640.625,-38.086,-118.164,-492.188
1623120658.903,-90.820,-16.113,-9.766,-104.492
1623120658.907,569.336,-2.930,69.336,413.086
1623120658.911,58.594,-27.344,-51.758,56.152
1623120658.915,-622.559,-42.480,-147.461,-473.633
1623120658.918,-302.246,-27.832,-61.523,-263.672
1623120658.922,459.473,-5.371,43.457,331.543
1623120658.926,374.512,-12.207,12.695,292.969
1623120658.930,-453.125,-36.133,-107.910,-338.379
1623120658.934,-515.137,-30.273,-103.027,-402.344
1623120658.936,299.805,-2.930,30.762,203.613
1623120658.940,529.297,-13.184,53.711,399.902
1623120658.944,-245.605,-49.316,-78.125,-180.664
1623120658.948,-616.211,-56.152,-119.141,-480.957
1623120658.952,110.840,-22.949,12.695,52.734
1623120658.956,599.121,-7.812,70.312,442.871
1623120658.960,-9.277,-32.715,-56.641,10.254
1623120658.963,-614.258,-43.457,-150.391,-457.031
1623120658.967,-136.719,-21.484,-44.434,-120.605
1623120658.971,540.527,0.488,70.801,402.832
1623120658.975,221.680,-13.184,-17.578,189.453
1623120658.979,-532.227,-36.621,-128.418,-399.414
1623120658.981,-346.680,-20.996,-53.223,-294.434
1623120658.985,454.102,2.441,64.941,309.570
1623120658.989,428.711,-5.371,25.879,330.566
1623120658.993,-392.578,-31.738,-114.746,-286.133
1623120658.997,-525.391,-30.273,-115.234,-417.969
1623120659.001,294.922,-3.906,24.902,195.801
1623120659.005,566.406,-3.906,54.199,424.316
1623120659.008,-185.547,-41.016,-84.473,-128.418
1623120659.012,-609.375,-42.969,-117.676,-474.609
1623120659.016,33.691,-7.812,8.789,-1.465
1623120659.020,576.172,0.977,64.453,433.594
1623120659.024,39.062,-24.414,-32.715,46.875
1623120659.026,-623.047,-43.457,-115.234,-464.355
1623120659.030,-205.078,-30.762,-35.645,-177.734
1623120659.034,534.668,-7.324,64.941,397.949
1623120659.038,271.973,-5.859,4.883,233.887
1623120659.042,-529.785,-43.457,-125.000,-377.441
1623120659.046,-414.551,-43.945,-86.426,-313.477
1623120659.050,399.414,-9.766,45.898,297.363
1623120659.053,445.801,-14.160,25.391,351.562
1623120659.057,-364.258,-40.039,-96.680,-269.531
1623120659.061,-566.406,-40.527,-102.539,-452.637
1623120659.065,208.984,-5.371,36.133,130.859
1623120659.069,554.199,5.859,64.941,422.363
1623120659.071,-148.438,-27.832,-78.125,-100.586
1623120659.075,-630.859,-47.363,-134.277,-488.770
1623120659.079,-18.555,-23.926,-19.043,-46.387
1623120659.083,575.684,-4.395,72.266,420.410
1623120659.087,94.727,-22.461,-31.738,78.613
1623120659.091,-591.797,-45.898,-150.391,-456.055
1623120659.095,-252.930,-39.062,-72.754,-220.215
1623120659.098,498.047,-8.789,78.125,363.770
1623120659.102,297.852,-14.160,18.066,235.840
1623120659.106,-507.812,-48.340,-130.859,-389.648
1623120659.110,-380.371,-36.133,-78.125,-323.242
1623120659.114,378.418,-10.742,51.270,252.930
1623120659.116,461.426,-13.184,44.434,346.191
1623120659.120,-311.523,-37.109,-96.680,-227.539
1623120659.124,-595.215,-45.898,-120.117,-479.004
1623120659.128,157.227,-19.043,26.855,74.707
1623120659.132,569.824,-7.812,69.824,417.480
1623120659.136,-93.750,-41.016,-73.730,-65.918
1623120659.140,-630.859,-48.340,-134.766,-493.652
1623120659.143,-67.871,-18.066,-10.742,-96.680
1623120659.147,575.195,-1.953,79.590,418.945
1623120659.151,150.879,-25.391,-21.973,126.953
1623120659.155,-587.402,-51.270,-136.230,-449.707
1623120659.159,-301.270,-34.180,-45.410,-267.578
1623120659.176,484.863,-10.742,70.312,333.008
1623120659.180,355.469,-20.020,3.906,271.973
1623120659.184,-460.449,-44.434,-110.352,-347.656
1623120659.188,-485.352,-37.598,-61.035,-395.996
1623120659.192,325.195,-12.207,70.801,216.797
1623120659.196,511.719,-14.160,46.387,398.438
1623120659.200,-267.578,-38.086,-97.656,-183.594
1623120659.203,-604.980,-49.805,-112.793,-472.168
1623120659.207,111.328,-27.344,22.949,52.246
1623120659.211,580.078,-11.230,51.758,436.035
1623120659.215,-46.875,-21.973,-59.082,-15.625
1623120659.219,-635.254,-35.645,-115.234,-478.516
1623120659.221,-130.371,-27.832,-21.973,-121.094
1623120659.225,541.992,-9.277,73.242,396.484
1623120659.229,174.316,-21.484,-13.184,150.879
1623120659.233,-588.379,-47.852,-128.906,-431.641
1623120659.237,-361.816,-29.297,-74.707,-286.133
1623120659.241,435.547,-1.953,39.551,321.777
1623120659.245,377.930,-9.766,17.578,306.641
1623120659.248,-436.523,-34.180,-119.141,-310.059
1623120659.252,-520.020,-38.086,-137.695,-405.762
1623120659.256,299.805,-10.742,23.926,212.891
1623120659.260,543.457,-11.719,66.406,421.387
1623120659.264,-226.074,-40.527,-84.961,-170.898
1623120659.266,-621.094,-45.898,-137.695,-501.465
1623120659.270,70.312,-21.484,-6.836,6.348
1623120659.274,594.238,-8.301,64.941,430.664
1623120659.278,19.531,-33.691,-52.734,19.043
1623120659.282,-611.328,-53.223,-140.137,-475.098
1623120659.286,-161.621,-31.738,-34.668,-159.668
1623120659.290,533.203,-10.742,67.383,389.648
1623120659.293,244.141,-26.367,-7.812,197.754
1623120659.297,-533.203,-51.758,-133.301,-396.484
1623120659.301,-390.625,-40.039,-62.012,-306.641
1623120659.305,412.109,-13.672,69.824,301.758
1623120659.309,419.922,-20.020,18.066,338.867
1623120659.311,-399.414,-51.270,-119.629,-277.832
1623120659.315,-568.359,-46.875,-117.676,-441.406
1623120659.319,223.633,-15.137,20.508,143.066
1623120659.323,537.598,-17.090,48.340,406.738
1623120659.327,-178.223,-42.480,-77.637,-123.047
1623120659.331,-600.586,-58.105,-128.418,-464.355
1623120659.335,3.418,-38.086,-20.508,-24.414
1623120659.338,568.848,-12.207,56.152,425.781
1623120659.342,74.707,-21.973,-48.828,66.895
1623120659.346,-608.887,-40.527,-125.977,-475.098
1623120659.350,-221.680,-34.180,-42.969,-203.125
1623120659.354,522.461,-14.648,51.758,382.812
1623120659.356,290.527,-22.461,0.977,237.793
1623120659.360,-516.602,-49.805,-120.117,-383.301
1623120659.364,-433.594,-43.457,-83.008,-347.656
1623120659.368,380.859,-20.020,52.734,270.508
1623120659.372,455.078,-20.508,35.156,356.934
1623120659.376,-353.027,-49.805,-115.234,-249.023
1623120659.380,-579.102,-54.688,-125.000,-446.289
1623120659.383,182.617,-27.344,16.113,113.770
1623120659.387,563.477,-12.207,69.336,426.270
1623120659.391,-125.000,-38.086,-69.824,-80.566
1623120659.395,-633.789,-53.711,-133.789,-486.328
1623120659.399,-19.043,-27.344,-6.836,-37.598
1623120659.401,577.637,-8.789,68.359,430.664
1623120659.405,102.539,-28.320,-35.645,94.238
1623120659.409,-604.004,-49.805,-144.531,-458.008
1623120659.413,-284.668,-32.227,-57.617,-245.117
1623120659.417,480.957,-11.230,55.176,349.121
1623120659.421,320.312,-24.902,-4.395,263.184
1623120659.425,-492.676,-51.758,-140.625,-357.422
1623120659.428,-482.422,-42.969,-99.121,-371.582
1623120659.432,342.773,-10.254,71.289,250.488
1623120659.436,500.977,-11.230,62.012,394.531
1623120659.440,-287.109,-47.363,-109.863,-196.777
1623120659.444,-583.008,-41.992,-119.141,-444.824
1623120659.446,148.926,-10.254,46.387,96.191
1623120659.450,577.637,-14.160,72.266,445.801
1623120659.454,-70.801,-42.480,-73.730,-17.578
1623120659.458,-628.418,-47.363,-127.441,-463.379
1623120659.462,-88.379,-22.461,-5.859,-88.379
1623120659.466,577.148,-2.930,64.453,417.480
1623120659.470,182.617,-20.508,-35.156,161.621
1623120659.473,-569.824,-41.016,-119.629,-413.574
1623120659.477,-322.266,-30.762,-39.062,-270.996
1623120659.481,458.008,-19.531,63.965,324.219
1623120659.485,366.699,-26.855,16.113,294.434
1623120659.489,-440.918,-44.922,-113.770,-317.871
1623120659.491,-501.465,-34.180,-94.238,-399.902
1623120659.495,300.293,-6.348,43.945,193.848
1623120659.499,522.461,-5.371,51.270,389.160
1623120659.503,-237.305,-30.762,-86.426,-180.664
1623120659.507,-610.352,-44.922,-121.582,-492.676
1623120659.511,74.707,-27.344,-0.488,18.066
1623120659.515,571.777,-12.207,60.547,422.363
1623120659.518,-15.137,-32.227,-34.668,-0.488
1623120659.522,-631.348,-50.293,-114.258,-481.934
1623120659.526,-149.902,-41.504,-29.297,-139.160
1623120659.530,577.637,-14.648,73.730,430.176
1623120659.534,258.301,-14.160,-6.348,211.914
1623120659.551,-546.387,-41.504,-128.906,-416.504
1623120659.555,-378.418,-24.414,-70.312,-315.918
1623120659.559,429.199,4.883,66.895,306.152
1623120659.563,396.484,-0.488,45.898,299.805
1623120659.567,-420.898,-13.184,-102.051,-329.590
1623120659.571,-548.828,-10.254,-110.840,-430.176
1623120659.575,248.535,9.277,41.016,140.137
1623120659.578,533.203,18.066,64.941,364.258
1623120659.582,-213.867,-8.301,-96.680,-174.316
1623120659.586,-625.000,-21.973,-146.973,-503.906
1623120659.590,44.922,7.812,5.859,-19.043
1623120659.594,585.449,19.531,73.242,413.574
1623120659.596,40.039,-3.906,-46.875,26.367
1623120659.600,-615.723,-21.973,-135.742,-494.141
1623120659.604,-205.566,-5.371,-38.574,-211.914
1623120659.608,528.809,17.578,76.660,353.516
1623120659.612,263.672,0.488,-10.742,188.965
1623120659.616,-531.250,-27.832,-156.250,-409.668
1623120659.620,-405.273,-16.113,-93.262,-352.051
1623120659.623,409.668,14.160,57.129,270.020
1623120659.627,454.590,1.953,17.578,350.098
1623120659.631,-364.258,-27.344,-124.512,-270.508
1623120659.635,-559.082,-17.090,-110.352,-459.473
1623120659.639,217.285,12.695,26.855,110.840
1623120659.641,567.871,16.602,59.082,403.320
1623120659.645,-127.930,-10.742,-76.172,-112.793
1623120659.649,-611.328,-21.973,-138.184,-495.117
1623120659.653,-3.906,-1.953,-0.488,-45.410
1623120659.657,564.941,4.395,66.406,412.109
1623120659.661,96.191,-13.672,-43.945,91.309
1623120659.665,-583.008,-26.367,-132.812,-440.430
1623120659.668,-233.887,-19.043,-53.223,-212.402
1623120659.672,528.320,1.465,47.363,379.395
1623120659.676,331.543,7.812,18.555,263.184
1623120659.680,-485.840,-26.855,-112.305,-361.816
1623120659.684,-438.477,-33.203,-102.051,-359.863
1623120659.686,379.395,-7.324,39.551,258.789
1623120659.690,490.723,-7.812,29.785,377.441
1623120659.694,-310.059,-33.203,-105.957,-227.051
1623120659.698,-583.496,-41.016,-125.000,-462.402
1623120659.702,161.133,-12.695,7.324,89.844
1623120659.706,577.148,-2.441,61.523,432.129
1623120659.710,-81.055,-26.367,-54.688,-57.617
1623120659.713,-619.141,-38.574,-128.906,-493.164
1623120659.717,-68.359,-25.391,-25.391,-98.145
1623120659.721,562.012,-13.672,73.730,394.531
1623120659.725,137.207,-26.367,-21.484,106.934
1623120659.729,-591.797,-42.969,-134.766,-448.242
1623120659.731,-296.387,-25.879,-51.270,-261.719
1623120659.735,490.723,1.465,83.496,339.844
1623120659.739,361.816,-8.301,26.367,284.668
1623120659.743,-450.195,-36.621,-115.723,-328.125
1623120659.747,-479.492,-36.133,-76.172,-381.348
1623120659.751,322.754,-7.324,58.594,222.168
1623120659.755,507.324,-7.324,32.227,388.672
1623120659.758,-273.926,-41.504,-118.164,-191.406
1623120659.762,-600.098,-35.645,-117.188,-466.309
1623120659.766,116.211,-5.371,27.832,49.805
1623120659.770,578.125,-3.906,72.266,429.688
1623120659.774,-40.039,-33.203,-43.457,-13.184
1623120659.776,-618.164,-42.480,-113.281,-477.539
1623120659.780,-105.469,-15.137,-10.742,-120.117
1623120659.784,567.871,-3.906,70.801,412.598
1623120659.788,187.988,-26.367,-20.996,161.133
1623120659.792,-557.617,-42.969,-126.465,-415.527
1623120659.796,-289.551,-30.273,-55.664,-251.465
1623120659.800,483.398,-12.207,59.082,323.242
1623120659.803,402.832,-24.902,14.648,303.223
1623120659.807,-416.016,-43.457,-102.051,-309.570
1623120659.811,-518.066,-37.109,-105.469,-419.922
1623120659.815,276.855,-16.602,12.695,183.594
1623120659.819,525.879,-12.695,44.434,400.391
1623120659.821,-227.051,-32.227,-92.285,-166.016
1623120659.825,-613.770,-37.598,-130.859,-479.492
1623120659.829,71.289,-16.113,6.836,20.996
1623120659.833,585.449,-5.859,73.242,430.176
1623120659.837,16.602,-33.691,-42.480,20.020
1623120659.841,-615.234,-52.246,-139.160,-478.516
1623120659.845,-166.992,-36.621,-56.641,-162.109
1623120659.848,550.781,-9.277,76.660,391.602
1623120659.852,245.117,-19.043,19.043,196.777
1623120659.856,-541.504,-42.480,-122.559,-401.367
1623120659.860,-383.789,-24.414,-69.824,-317.383
1623120659.864,419.922,-1.953,73.730,293.945
1623120659.866,421.387,-16.113,37.598,334.473
1623120659.870,-395.020,-39.062,-110.352,-275.879
1623120659.874,-561.523,-38.574,-103.027,-430.664
1623120659.878,221.191,-19.043,41.016,152.344
1623120659.882,548.340,-10.742,65.430,418.945
1623120659.886,-169.922,-41.016,-88.867,-112.793
1623120659.890,-621.094,-51.270,-140.137,-471.191
1623120659.893,17.090,-21.484,7.324,-14.648
1623120659.897,586.914,-6.348,79.102,430.664
1623120659.901,71.777,-37.109,-47.852,60.059
1623120659.905,-609.375,-53.223,-141.602,-468.262
1623120659.909,-216.309,-20.508,-36.621,-195.801
1623120659.926,522.461,-4.883,62.988,371.094
1623120659.930,280.273,-28.320,-27.344,217.773
1623120659.934,-517.578,-41.016,-134.277,-385.742
1623120659.938,-427.734,-27.344,-83.984,-353.516
1623120659.942,385.254,-11.230,34.180,255.371
1623120659.946,427.734,-18.555,6.836,317.383
1623120659.950,-345.703,-33.203,-116.211,-266.602
1623120659.953,-561.523,-38.086,-110.840,-455.566
1623120659.957,184.570,-23.926,8.301,105.469
1623120659.961,569.824,-15.625,30.762,431.641
1623120659.965,-110.840,-30.273,-74.707,-68.848
1623120659.969,-619.141,-41.016,-130.371,-482.422
1623120659.976,-28.809,-20.996,-13.672,-47.852
1623120659.980,583.496,-4.883,66.406,439.941
1623120659.984,110.840,-22.461,-47.363,104.492
1623120659.988,-604.492,-44.922,-149.414,-448.730
1623120659.992,-284.668,-35.156,-60.059,-206.543
1623120659.996,479.492,-14.160,60.059,361.328
1623120660.000,312.500,-22.461,6.348,250.000
1623120660.003,-497.070,-39.551,-107.910,-358.398
1623120660.007,-483.398,-39.551,-95.703,-383.301
1623120660.011,330.078,-13.184,28.809,232.422
1623120660.015,486.816,-3.418,54.199,381.836
1623120660.019,-298.340,-38.086,-83.984,-211.914
1623120660.016,-599.121,-49.805,-125.000,-471.191
1623120660.020,135.742,-19.043,16.602,71.289
1623120660.024,582.031,-3.418,74.219,436.035
1623120660.028,-59.082,-22.949,-43.945,-23.438
1623120660.032,-624.023,-44.434,-130.859,-476.562
1623120660.036,-90.332,-30.762,-39.551,-109.863
1623120660.040,586.914,-5.371,56.152,415.527
1623120660.043,190.430,-27.832,-23.926,153.809
1623120660.047,-575.684,-64.941,-145.508,-432.129
1623120660.051,-318.359,-41.992,-56.641,-273.926
1623120660.055,476.562,-12.695,80.078,333.984
1623120660.059,384.766,-22.461,23.926,299.316
1623120660.061,-445.312,-48.828,-111.816,-326.660
1623120660.065,-514.160,-48.340,-92.285,-403.809
1623120660.069,292.480,-25.391,38.574,200.684
1623120660.073,503.418,-28.320,37.109,380.859
1623120660.077,-260.254,-52.734,-94.238,-187.988
1623120660.081,-579.590,-52.734,-120.605,-450.195
1623120660.085,86.426,-34.180,4.395,41.992
1623120660.088,556.641,-25.879,60.547,424.316
1623120660.092,-22.949,-40.039,-55.664,14.648
1623120660.096,-632.812,-51.270,-113.770,-458.008
1623120660.100,-145.996,-30.273,-13.672,-139.160
1623120660.104,541.504,-15.625,69.824,395.508
1623120660.106,200.684,-28.320,-10.254,182.129
1623120660.110,-566.895,-46.875,-123.047,-418.945
1623120660.114,-378.418,-35.645,-70.801,-312.988
1623120660.118,421.875,-15.625,47.363,297.852
1623120660.122,398.438,-24.414,19.531,308.594
1623120660.126,-422.852,-50.781,-122.070,-313.965
1623120660.130,-550.781,-54.199,-103.516,-431.152
1623120660.133,253.418,-25.879,37.598,173.828
1623120660.137,534.668,-12.207,62.988,413.086
1623120660.141,-203.125,-30.273,-70.312,-135.742
1623120660.145,-623.047,-46.875,-125.977,-479.492
1623120660.149,29.785,-31.250,0.000,-4.883
1623120660.151,577.148,-12.207,75.684,427.246
1623120660.155,39.551,-29.297,-34.668,42.969
1623120660.159,-606.934,-43.945,-126.953,-471.680
1623120660.163,-191.406,-25.879,-32.227,-184.082
1623120660.167,534.180,-9.277,80.078,385.742
1623120660.171,271.484,-19.531,12.207,193.359
1623120660.175,-519.531,-51.270,-123.535,-393.555
1623120660.178,-397.461,-43.457,-75.195,-314.941
1623120660.182,414.062,-7.324,72.266,293.945
1623120660.186,460.938,-18.066,33.691,356.934
1623120660.190,-343.750,-45.898,-120.605,-245.117
1623120660.194,-537.598,-32.227,-103.516,-414.062
1623120660.196,226.074,-3.906,43.945,144.043
1623120660.200,561.035,-4.883,52.246,426.758
1623120660.204,-137.695,-33.203,-95.215,-91.797
1623120660.208,-605.469,-35.156,-128.418,-479.004
1623120660.212,-5.371,-9.277,3.906,-41.992
1623120660.216,575.195,-4.883,70.312,431.152
1623120660.220,91.797,-33.691,-49.805,98.145
1623120660.223,-599.121,-45.410,-125.000,-444.824
1623120660.227,-244.629,-19.043,-29.785,-210.449
1623120660.231,508.789,-5.859,60.059,361.816
1623120660.235,308.594,-22.461,-1.465,240.234
1623120660.239,-493.652,-38.086,-109.375,-371.582
1623120660.241,-441.895,-32.715,-80.566,-365.723
1623120660.245,363.281,-13.184,50.293,250.000
1623120660.249,473.145,-15.137,45.410,369.629
1623120660.253,-319.824,-41.504,-104.004,-229.004
1623120660.257,-578.613,-47.363,-121.094,-458.496
1623120660.261,165.039,-16.602,13.672,96.191
1623120660.265,561.035,-9.277,51.270,424.805
1623120660.268,-103.027,-36.133,-62.988,-64.941
1623120660.272,-625.488,-45.410,-125.488,-485.352
1623120660.276,-63.477,-28.809,-25.879,-77.148
1623120660.280,563.477,-15.137,62.500,417.480
1623120660.284,137.695,-37.109,-19.531,115.723
1623120660.301,-582.031,-52.734,-121.094,-448.730
1623120660.305,-294.434,-26.855,-56.152,-252.441
1623120660.309,479.492,-4.395,63.965,350.098
1623120660.313,355.957,-13.672,19.043,284.180
1623120660.317,-452.148,-39.551,-120.605,-341.797
1623120660.321,-469.238,-38.086,-96.191,-380.371
1623120660.325,339.844,-13.184,38.574,226.074
1623120660.328,530.762,-12.695,40.039,392.090
1623120660.332,-230.957,-43.457,-97.168,-172.852
1623120660.336,-573.730,-58.594,-132.324,-449.707
1623120660.340,111.328,-23.438,14.160,52.734
1623120660.344,570.801,-3.906,76.172,431.641
1623120660.346,-43.945,-31.738,-53.223,-9.277
1623120660.350,-627.930,-45.410,-127.441,-472.168
1623120660.354,-125.977,-29.785,-14.648,-116.699
1623120660.358,545.410,-18.066,70.801,404.297
1623120660.362,176.270,-38.574,-32.227,151.855
1623120660.366,-573.730,-51.758,-153.809,-440.918
1623120660.370,-349.609,-33.691,-90.332,-311.035
1623120660.373,437.012,-12.207,55.176,296.387
1623120660.377,381.836,-18.555,18.066,287.598
1623120660.381,-432.617,-49.316,-130.859,-332.031
1623120660.385,-518.066,-45.898,-104.004,-428.711
1623120660.389,286.133,-14.160,40.039,179.199
1623120660.391,539.062,-11.719,52.246,406.250
1623120660.395,-208.008,-38.574,-73.242,-148.926
1623120660.399,-604.492,-47.852,-111.328,-470.215
1623120660.403,69.336,-22.949,5.859,28.320
1623120660.407,586.426,-15.137,63.477,447.754
1623120660.411,17.090,-33.203,-42.480,41.504
1623120660.415,-610.840,-41.016,-117.676,-460.449
1623120660.418,-148.926,-32.715,-20.996,-140.625
1623120660.422,552.734,-22.949,61.523,418.457
1623120660.426,213.867,-27.344,-6.348,147.949
1623120660.430,-531.250,-47.852,-123.047,-425.293
1623120660.434,-362.793,-42.480,-81.543,-311.523
1623120660.436,423.828,-12.207,57.617,280.762
1623120660.440,436.035,-16.602,36.621,331.543
1623120660.444,-379.395,-45.898,-117.676,-286.621
1623120660.448,-538.574,-41.016,-119.629,-439.941
1623120660.452,230.469,-9.277,26.367,147.461
1623120660.456,503.906,-10.254,40.039,397.461
1623120660.460,-186.035,-39.062,-83.008,-122.559
1623120660.463,-620.117,-52.734,-129.395,-479.980
1623120660.467,-6.836,-29.785,-15.137,-22.461
1623120660.471,567.871,-7.324,72.754,422.363
1623120660.475,55.176,-29.785,-37.598,55.176
1623120660.479,-618.164,-41.992,-136.719,-471.191
1623120660.481,-233.887,-18.066,-44.922,-213.379
1623120660.485,502.930,-0.488,64.453,357.422
1623120660.489,270.996,-20.508,-9.277,213.379
1623120660.493,-521.484,-52.734,-137.695,-386.719
1623120660.497,-431.152,-33.203,-81.543,-343.262
1623120660.501,378.906,-5.859,38.574,273.438
1623120660.505,458.496,-20.020,15.137,359.863
1623120660.508,-337.891,-41.992,-120.117,-238.281
1623120660.512,-563.477,-31.250,-104.492,-429.199
1623120660.516,191.895,-7.812,41.992,125.977
1623120660.520,566.895,-5.371,61.035,440.918
1623120660.524,-116.211,-31.250,-72.266,-57.617
1623120660.526,-623.535,-43.945,-113.281,-474.121
1623120660.530,-34.180,-17.090,5.859,-55.176
1623120660.534,574.219,-10.742,61.035,425.781
1623120660.538,109.375,-34.180,-40.527,106.934
1623120660.542,-589.844,-45.898,-129.395,-437.500
1623120660.546,-261.230,-35.156,-45.898,-225.586
1623120660.550,496.582,-15.137,57.617,364.258
1623120660.553,328.125,-22.949,0.000,269.531
1623120660.557,-483.887,-37.109,-92.285,-355.469
1623120660.561,-467.773,-32.715,-62.988,-376.465
1623120660.565,342.285,-16.602,54.688,238.281
1623120660.569,483.887,-18.066,62.012,376.953
1623120660.571,-300.781,-44.434,-82.520,-219.238
1623120660.575,-596.680,-44.434,-120.605,-476.562
1623120660.579,132.324,-20.508,11.230,61.035
1623120660.583,562.012,-17.578,68.359,415.527
1623120660.587,-85.449,-38.574,-55.176,-52.246
1623120660.591,-634.766,-51.758,-140.625,-492.188
1623120660.595,-83.984,-31.250,-41.016,-96.680
1623120660.598,572.266,-13.672,75.684,427.246
1623120660.602,157.715,-33.691,0.488,130.859
1623120660.606,-585.449,-48.828,-121.582,-455.566
1623120660.610,-305.176,-25.391,-56.152,-265.137
1623120660.614,479.492,-5.859,71.289,340.332
1623120660.616,382.324,-14.648,28.809,297.852
1623120660.620,-428.223,-35.645,-116.699,-317.871
1623120660.624,-500.488,-34.180,-96.191,-403.320
1623120660.628,292.969,-15.625,40.527,196.289
1623120660.632,522.949,-15.625,34.668,386.230
1623120660.636,-238.281,-42.969,-115.723,-180.176
1623120660.640,-601.074,-49.316,-135.254,-474.609
1623120660.643,106.934,-4.395,28.809,44.434
1623120660.647,597.656,5.859,77.148,449.219
1623120660.651,-7.324,-27.832,-66.895,11.230
1623120660.655,-615.723,-41.504,-135.254,-467.773
1623120660.659,-135.254,-20.996,-15.137,-127.930
1623120660.676,550.293,0.488,79.102,398.926
1623120660.680,219.238,-18.555,-10.742,177.734
1623120660.684,-549.316,-42.969,-128.906,-409.180
1623120660.688,-356.445,-29.297,-68.359,-301.270
1623120660.692,446.777,-0.977,63.477,311.035
1623120660.696,335.938,-20.996,8.301,260.742
1623120660.700,-438.477,-50.293,-116.699,-328.125
1623120660.703,-519.043,-37.598,-86.426,-421.387
1623120660.707,247.559,-18.555,42.969,160.156
1623120660.711,535.645,-24.902,53.223,413.574
1623120660.715,-191.895,-34.180,-73.242,-133.789
1623120660.719,-616.699,-43.457,-124.512,-476.562
1623120660.721,26.367,-26.855,-0.977,-5.371
1623120660.725,574.707,-2.441,75.195,428.223
1623120660.729,41.992,-18.555,-31.250,44.434
1623120660.733,-612.305,-41.504,-122.070,-470.215
1623120660.737,-199.219,-27.344,-27.344,-181.152
1623120660.741,522.949,-8.301,64.453,380.859
1623120660.745,257.324,-20.996,-7.324,206.543
1623120660.748,-532.715,-38.086,-120.117,-398.926
1623120660.752,-414.062,-35.645,-92.773,-342.285
1623120660.756,398.926,-16.602,34.668,273.438
1623120660.760,446.777,-8.789,33.203,339.355
1623120660.764,-360.840,-32.227,-97.656,-268.555
1623120660.766,-549.316,-35.645,-98.633,-447.266
1623120660.770,223.145,-5.371,29.785,120.605
1623120660.774,550.293,0.000,52.246,410.156
1623120660.778,-147.461,-27.344,-78.613,-100.586
1623120660.782,-582.520,-37.109,-134.766,-464.355
1623120660.786,1.953,-29.297,-20.996,-39.551
1623120660.790,567.383,-16.113,67.383,420.898
1623120660.793,89.355,-22.949,-20.508,84.961
1623120660.797,-604.980,-56.152,-138.672,-451.660
1623120660.801,-252.441,-42.480,-39.551,-217.285
1623120660.805,502.930,-10.742,76.172,357.422
1623120660.809,312.012,-20.508,8.301,249.512
1623120660.811,-487.793,-39.062,-104.004,-360.840
1623120660.815,-441.406,-26.855,-56.641,-360.840
1623120660.819,358.887,-4.395,61.035,248.535
1623120660.823,468.262,-10.742,32.227,365.234
1623120660.827,-323.242,-32.715,-100.098,-229.492
1623120660.831,-587.402,-37.109,-112.793,-466.309
1623120660.835,161.621,-14.160,27.344,80.566
1623120660.838,573.730,-2.441,69.824,430.176
1623120660.842,-81.543,-25.879,-50.781,-43.457
1623120660.846,-619.629,-42.480,-104.492,-482.910
1623120660.850,-66.406,-22.461,-16.113,-86.426
1623120660.854,560.059,-3.418,68.359,415.527
1623120660.856,132.324,-17.090,-9.277,113.281
1623120660.860,-592.285,-31.738,-118.652,-447.754
1623120660.864,-306.152,-23.438,-49.316,-258.301
1623120660.868,467.773,-1.953,62.012,343.262
1623120660.872,344.727,-11.230,14.160,278.809
1623120660.876,-467.285,-41.992,-126.953,-342.773
1623120660.880,-492.188,-38.086,-110.840,-387.207
1623120660.883,320.312,-15.137,30.762,225.586
1623120660.887,500.977,-14.648,41.016,391.602
1623120660.891,-271.484,-41.016,-91.309,-192.871
1623120660.895,-593.750,-39.551,-114.258,-463.379
1623120660.899,111.328,-12.695,11.230,62.012
1623120660.901,571.777,-9.277,64.453,428.711
1623120660.905,-43.457,-32.715,-57.617,-23.438
1623120660.909,-629.883,-42.969,-135.254,-479.980
1623120660.913,-119.629,-21.484,-18.066,-115.723
1623120660.917,554.688,-6.348,77.637,408.691
1623120660.921,187.500,-28.809,-18.066,156.738
1623120660.925,-570.801,-52.246,-140.137,-424.805
1623120660.928,-345.703,-29.297,-66.895,-281.738
1623120660.932,446.777,-3.906,84.473,315.918
1623120660.936,384.766,-21.973,33.691,302.246
1623120660.940,-431.641,-43.945,-117.188,-307.617
1623120660.944,-522.461,-36.133,-94.238,-414.551
1623120660.946,280.273,-13.184,47.363,178.223
1623120660.950,529.297,-22.461,44.922,395.508
1623120660.954,-223.633,-48.340,-91.797,-157.715
1623120660.958,-618.164,-38.574,-108.398,-474.121
1623120660.962,58.594,-16.113,19.531,16.602
1623120660.966,577.148,-10.254,62.012,428.711
1623120660.970,12.695,-37.598,-70.312,24.902
1623120660.973,-621.582,-48.828,-123.535,-469.727
1623120660.977,-191.406,-24.414,-7.812,-171.387
1623120660.981,523.926,-5.859,71.289,383.301
1623120660.985,244.141,-16.602,-11.719,201.660
1623120660.989,-531.250,-42.480,-114.746,-394.531
1623120660.991,-382.812,-38.086,-62.500,-315.918
1623120660.995,420.898,-11.719,58.105,295.898
1623120660.999,429.199,-12.207,37.109,347.656
1623120661.003,-386.719,-45.410,-96.680,-268.555
1623120661.007,-546.387,-49.805,-88.867,-429.199
1623120661.011,237.793,-23.926,46.387,151.855
1623120661.015,549.316,-15.625,57.129,420.898
1623120661.018,-176.270,-37.109,-67.871,-112.305
1623120661.022,-625.977,-50.781,-123.047,-481.445
1623120661.026,15.137,-20.996,-9.277,-18.555
1623120661.030,579.590,-2.441,72.754,432.129
1623120661.034,58.594,-30.762,-32.715,65.918
1623120661.051,-610.840,-51.270,-132.812,-449.707
1623120661.055,-221.191,-35.645,-47.363,-184.570
1623120661.059,520.020,-5.371,66.895,386.230
1623120661.063,280.762,-11.719,1.953,231.445
1623120661.067,-512.207,-40.039,-121.582,-375.977
1623120661.071,-386.719,-38.086,-79.102,-311.523
1623120661.075,390.137,-15.625,55.176,276.367
1623120661.078,444.336,-17.578,40.039,343.750
1623120661.082,-339.844,-43.457,-108.398,-248.535
1623120661.086,-575.195,-43.945,-120.117,-450.684
1623120661.090,189.941,-11.719,33.203,106.445
1623120661.094,581.055,1.465,71.777,418.457
1623120661.096,-106.934,-32.715,-76.172,-77.637
1623120661.100,-625.488,-52.246,-147.461,-480.957
1623120661.104,-37.598,-16.602,-0.488,-59.570
1623120661.108,573.242,1.465,83.008,424.316
1623120661.112,122.070,-23.438,-29.297,105.469
1623120661.116,-563.965,-43.457,-128.906,-431.641
1623120661.120,-258.301,-27.832,-55.664,-223.145
1623120661.123,497.559,0.488,75.195,363.281
1623120661.127,345.215,-9.277,22.461,284.180
1623120661.131,-474.609,-45.898,-130.371,-334.961
1623120661.135,-469.238,-35.156,-87.402,-367.676
1623120661.139,346.191,-8.301,60.547,233.398
1623120661.141,495.117,-15.137,40.527,380.371
1623120661.145,-295.898,-36.621,-103.027,-204.102
1623120661.149,-583.496,-40.527,-104.980,-452.637
1623120661.153,143.066,-18.066,28.320,78.125
1623120661.157,533.203,-18.066,46.875,403.320
1623120661.161,-87.891,-44.434,-76.660,-40.527
1623120661.165,-632.324,-50.293,-129.883,-476.562
1623120661.168,-112.305,-30.273,-22.461,-105.957
1623120661.172,554.688,-21.973,47.363,418.457
1623120661.176,155.273,-29.785,-18.555,137.695
1623120661.180,-594.238,-51.758,-115.723,-440.918
1623120661.184,-329.590,-42.480,-55.664,-258.301
1623120661.186,453.125,-11.230,83.496,345.703
1623120661.190,354.492,-23.438,33.203,293.457
1623120661.194,-454.590,-52.246,-117.676,-333.984
1623120661.198,-510.254,-52.246,-97.656,-412.598
1623120661.202,295.898,-25.879,55.664,188.965
1623120661.206,515.137,-19.531,63.965,393.555
1623120661.210,-246.094,-41.016,-83.984,-167.969
1623120661.213,-596.680,-45.898,-113.770,-461.914
1623120661.217,90.332,-25.879,20.996,46.387
1623120661.221,522.461,-17.578,72.754,386.719
1623120661.225,-24.414,-34.180,-44.922,-7.324
1623120661.229,-603.027,-55.176,-128.906,-469.727
1623120661.231,-139.648,-40.527,-21.973,-161.133
1623120661.235,562.988,-16.113,83.984,390.137
1623120661.239,217.773,-30.762,-6.836,166.504
1623120661.243,-553.223,-52.246,-129.883,-421.387
1623120661.247,-379.883,-45.898,-66.895,-311.523
1623120661.251,413.574,-21.484,59.570,290.527
1623120661.255,392.090,-26.855,14.648,305.664
1623120661.258,-426.758,-61.035,-143.555,-304.688
1623120661.262,-549.805,-50.293,-105.469,-432.617
1623120661.266,242.676,-20.020,49.316,157.715
1623120661.270,538.086,-13.672,61.035,412.598
1623120661.274,-188.965,-30.273,-59.082,-121.094
1623120661.276,-614.258,-39.062,-113.281,-463.867
1623120661.280,42.480,-15.625,0.000,5.859
1623120661.284,579.590,0.488,71.289,436.523
1623120661.288,30.273,-24.902,-40.527,44.922
1623120661.292,-616.699,-49.316,-125.000,-474.121
1623120661.296,-186.035,-28.320,-36.621,-179.199
1623120661.300,540.039,-12.695,71.289,393.555
1623120661.303,267.578,-27.832,9.766,220.215
1623120661.307,-516.602,-34.668,-93.750,-397.949
1623120661.311,-393.066,-31.738,-60.547,-346.191
1623120661.315,422.852,-12.207,47.363,278.320
1623120661.319,469.238,-5.371,42.480,352.539
1623120661.321,-344.238,-32.715,-91.309,-270.508
1623120661.325,-550.293,-43.945,-99.609,-458.008
1623120661.329,211.914,-24.414,13.672,109.863
1623120661.333,561.035,-11.230,47.363,399.414
1623120661.337,-137.695,-28.320,-61.035,-115.234
1623120661.341,-627.441,-43.457,-129.883,-507.324
1623120661.345,-20.996,-27.344,-13.672,-62.012
1623120661.348,573.730,-5.859,81.543,407.227
1623120661.352,86.914,-22.461,-33.203,64.941
1623120661.356,-608.887,-58.594,-148.926,-460.938
1623120661.360,-257.812,-44.922,-53.711,-212.402
1623120661.364,503.906,-11.230,78.613,366.699
1623120661.366,310.059,-24.902,8.301,252.441
1623120661.370,-492.188,-45.410,-129.883,-342.773
1623120661.374,-451.660,-36.133,-94.238,-344.727
1623120661.378,351.562,-14.160,56.641,250.488
1623120661.382,470.703,-19.043,55.176,376.465
1623120661.386,-328.613,-51.270,-106.934,-214.844
1623120661.390,-595.703,-57.617,-126.465,-449.219
1623120661.393,161.621,-23.926,29.297,106.445
1623120661.397,576.172,-4.883,75.684,444.336
1623120661.401,-83.496,-26.367,-63.965,-39.062
1623120661.405,-614.746,-41.016,-129.395,-474.121
1623120661.409,-51.758,-15.137,-2.441,-80.078
1623120661.426,576.660,-4.395,87.891,416.992
1623120661.430,138.184,-32.227,-21.973,107.910
1623120661.434,-588.379,-49.316,-123.047,-461.914
1623120661.438,-293.945,-25.391,-41.016,-269.043
1623120661.442,470.703,-0.977,66.406,326.172
1623120661.446,334.961,-14.648,12.207,266.602
1623120661.450,-475.586,-36.133,-105.957,-352.051
1623120661.453,-510.742,-29.297,-73.242,-411.621
1623120661.457,295.410,-11.230,47.363,196.777
1623120661.461,487.793,-7.812,46.875,379.883
1623120661.465,-293.945,-26.367,-68.848,-197.754
1623120661.469,-633.301,-31.250,-93.262,-484.375
1623120661.471,81.055,-1.465,37.598,34.668
1623120661.475,535.156,15.625,88.867,396.484
1623120661.479,-102.539,-3.906,-43.457,-74.707
1623120661.483,-697.266,-16.113,-119.141,-547.363
1623120661.487,-202.637,14.160,-19.043,-209.473
1623120661.491,377.441,44.434,63.477,235.840
1623120661.495,15.137,30.762,7.812,-11.230
1623120661.498,-726.562,17.578,-92.773,-577.637
1623120661.502,-545.898,45.410,-39.062,-477.051
1623120661.506,230.469,81.055,104.980,99.609
1623120661.510,147.949,81.543,62.500,62.500
1623120661.514,-680.664,56.152,-76.172,-564.453
1623120661.516,-776.855,57.129,-24.902,-676.758
1623120661.520,13.672,89.844,125.977,-99.609
1623120661.524,268.555,94.238,126.953,124.023
1623120661.528,-466.797,70.312,-1.953,-410.645
1623120661.532,-849.121,57.129,-61.523,-728.516
1623120661.536,-133.301,76.172,82.031,-206.055
1623120661.540,390.137,93.750,173.828,216.309
1623120661.543,-178.223,53.711,28.320,-179.199
1623120661.547,-797.363,20.996,-95.215,-650.879
1623120661.551,-332.520,50.781,20.996,-329.102
1623120661.555,403.809,62.012,147.461,237.793
1623120661.559,134.277,45.898,26.367,67.383
1623120661.561,-624.512,21.973,-102.051,-500.000
1623120661.565,-465.332,3.906,-32.227,-406.738
1623120661.569,360.840,30.273,104.492,216.797
1623120661.573,401.855,23.438,83.984,286.133
1623120661.577,-391.113,-17.578,-67.383,-296.875
1623120661.581,-546.387,-28.809,-97.168,-432.617
1623120661.585,238.770,-18.555,44.922,155.762
1623120661.588,570.312,-25.879,69.336,446.289
1623120661.592,-122.559,-52.246,-79.590,-51.758
1623120661.596,-572.266,-65.918,-105.957,-419.922
1623120661.600,69.824,-49.316,21.484,38.574
1623120661.604,651.367,-41.992,93.750,497.070
1623120661.606,143.066,-63.965,-23.438,147.461
1623120661.610,-521.973,-76.660,-125.000,-367.188
1623120661.614,-122.559,-52.734,0.488,-99.121
1623120661.618,623.535,-38.086,86.426,474.609
1623120661.622,387.207,-63.477,-1.953,332.031
1623120661.626,-401.367,-75.684,-118.164,-275.391
1623120661.630,-322.754,-69.824,-79.102,-244.141
1623120661.633,489.258,-60.059,46.875,384.766
1623120661.637,576.172,-54.199,43.457,476.074
1623120661.641,-221.191,-80.078,-113.281,-124.023
1623120661.645,-449.707,-94.238,-96.191,-323.730
1623120661.649,303.223,-61.035,72.754,234.863
1623120661.651,671.387,-49.805,95.215,541.992
1623120661.655,-20.508,-69.824,-51.270,35.156
1623120661.659,-528.320,-82.031,-104.980,-369.629
1623120661.663,51.270,-61.523,10.254,47.363
1623120661.667,661.621,-43.945,72.266,526.367
1623120661.671,201.172,-62.988,-32.715,198.730
1623120661.675,-508.301,-85.449,-126.465,-357.422
1623120661.678,-179.199,-67.871,-40.527,-143.555
1623120661.682,588.379,-27.832,92.773,437.012
1623120661.686,428.223,-38.086,32.227,344.727
1623120661.690,-380.859,-65.918,-102.051,-263.184
1623120661.694,-371.094,-57.617,-64.941,-292.480
1623120661.696,437.012,-25.391,66.895,308.594
1623120661.700,585.449,-26.367,62.988,456.055
1623120661.704,-205.566,-56.641,-77.148,-130.859
1623120661.708,-512.207,-54.688,-96.680,-395.508
1623120661.712,212.891,-29.785,36.133,132.812
1623120661.716,647.949,-26.855,64.453,495.117
1623120661.720,0.488,-54.199,-60.059,33.203
1623120661.723,-555.664,-60.547,-92.285,-408.691
1623120661.727,0.977,-36.133,25.879,-13.184
1623120661.731,628.418,-20.020,88.379,483.398
1623120661.735,218.262,-36.133,6.836,207.520
1623120661.739,-523.926,-58.594,-90.820,-364.746
1623120661.756,-283.691,-46.387,-35.645,-217.773
1623120661.760,508.301,-14.160,87.891,385.742
1623120661.764,413.574,-25.391,47.363,351.074
1623120661.768,-401.855,-49.805,-87.891,-274.414
1623120661.772,-458.984,-41.016,-69.824,-355.469
1623120661.776,340.820,-21.484,55.664,249.023
1623120661.780,557.617,-23.926,67.383,444.336
1623120661.783,-196.289,-46.875,-44.434,-123.047
1623120661.787,-555.176,-47.363,-83.984,-420.410
1623120661.791,137.695,-19.531,21.484,92.285
1623120661.795,618.652,-13.672,82.520,470.703
1623120661.799,-11.719,-41.992,-31.738,10.742
1623120661.801,-607.422,-56.152,-121.582,-452.637
1623120661.805,-110.352,-37.109,-10.742,-113.281
1623120661.809,568.848,-27.832,101.562,410.645
1623120661.813,229.492,-44.922,15.625,190.918
1623120661.817,-537.598,-65.430,-109.863,-401.367
1623120661.821,-358.887,-55.664,-69.824,-291.504
1623120661.825,444.336,-27.344,61.035,322.754
1623120661.828,424.316,-24.414,53.223,325.684
1623120661.832,-394.531,-48.340,-87.402,-295.898
1623120661.836,-527.832,-54.199,-109.375,-415.527
1623120661.840,251.953,-24.414,38.574,163.574
1623120661.844,536.621,-13.184,74.707,401.367
1623120661.846,-189.941,-37.598,-62.988,-127.441
1623120661.850,-612.793,-46.387,-119.141,-474.121
1623120661.854,48.828,-20.508,3.418,-1.953
1623120661.858,596.680,-8.301,75.195,439.453
1623120661.862,43.945,-41.504,-41.504,58.105
1623120661.866,-618.652,-57.617,-140.625,-455.078
1623120661.870,-196.777,-34.180,-39.062,-172.852
1623120661.873,533.691,-22.461,83.496,379.395
1623120661.877,269.043,-40.527,-7.812,214.355
1623120661.881,-520.508,-56.641,-138.672,-374.512
1623120661.885,-394.531,-40.039,-58.594,-319.824
1623120661.889,425.781,-14.648,74.219,284.180
1623120661.891,466.797,-18.555,29.785,354.980
1623120661.895,-359.375,-42.480,-100.586,-256.836
1623120661.899,-548.340,-40.039,-86.914,-428.711
1623120661.903,228.516,-17.578,34.180,152.832
1623120661.907,455.566,-30.762,35.645,357.422
1623120661.911,-207.031,-54.688,-76.660,-129.883
1623120661.915,-615.723,-56.152,-112.793,-464.355
1623120661.918,-28.320,-40.527,-2.441,-48.340
1623120661.922,575.195,-29.785,61.523,420.410
1623120661.926,91.309,-36.621,-24.414,83.008
1623120661.930,-601.562,-49.316,-112.305,-454.102
1623120661.934,-247.559,-30.762,-36.133,-214.355
1623120661.936,504.883,-8.789,69.336,368.164
1623120661.940,304.688,-29.297,9.277,247.070
1623120661.944,-496.582,-48.828,-119.141,-358.398
1623120661.948,-450.195,-36.133,-99.121,-356.934
1623120661.952,361.816,-14.648,37.598,254.883
1623120661.956,478.516,-18.555,32.227,379.883
1623120661.960,-313.477,-41.504,-106.445,-215.332
1623120661.963,-572.266,-40.039,-119.629,-440.430
1623120661.967,172.363,-14.648,15.625,104.004
1623120661.971,576.172,-3.906,66.895,425.781
1623120661.975,-95.703,-35.156,-69.336,-63.477
1623120661.979,-631.836,-48.828,-127.930,-492.188
1623120661.981,-62.988,-20.508,-9.766,-93.750
1623120661.985,575.684,1.953,61.523,411.133
1623120661.989,136.230,-21.484,-38.086,107.422
1623120661.993,-586.914,-52.246,-143.066,-450.195
1623120661.997,-283.203,-40.039,-64.941,-250.000
1623120662.001,480.469,-20.020,51.270,344.238
1623120662.005,341.797,-40.039,-5.859,274.902
1623120662.008,-465.820,-58.105,-133.301,-336.426
1623120662.012,-490.234,-37.598,-84.473,-384.766
1623120662.016,317.383,-13.184,52.734,208.008
1623120662.020,510.254,-18.066,37.109,383.789
1623120662.024,-272.949,-48.828,-95.215,-193.848
1623120662.026,-604.980,-50.781,-113.770,-470.215
1623120662.030,108.887,-20.508,15.625,54.688
1623120662.034,573.242,-14.160,51.270,426.270
1623120662.038,-46.387,-39.551,-60.059,-20.508
1623120662.042,-634.766,-52.246,-107.910,-472.656
1623120662.046,-125.000,-29.297,-19.043,-106.445
1623120662.050,551.270,-16.113,50.781,415.527
1623120662.053,183.105,-31.250,-37.109,162.598
1623120662.057,-569.824,-38.574,-120.117,-409.668
1623120662.061,-349.609,-30.762,-64.453,-272.461
1623120662.065,444.824,-3.418,44.434,323.730
1623120662.069,390.625,-2.441,22.949,312.988
1623120662.071,-427.734,-34.668,-103.027,-298.828
1623120662.075,-523.438,-35.156,-95.215,-399.414
1623120662.079,274.902,-12.207,33.203,182.129
1623120662.083,526.855,-11.230,50.293,400.879
1623120662.087,-221.680,-37.109,-89.844,-148.438
1623120662.091,-614.746,-43.457,-134.277,-469.727
1623120662.095,63.477,-16.602,-18.066,25.879
1623120662.098,591.309,6.348,69.336,431.641
1623120662.102,16.602,-25.879,-25.391,13.184
1623120662.106,-629.883,-59.082,-132.812,-475.098
1623120662.110,-173.828,-32.715,-34.668,-159.180
1623120662.114,541.992,-11.230,82.031,387.207
1623120662.117,238.281,-30.762,-7.812,191.895
1623120662.121,-542.969,-48.828,-141.113,-404.785
1623120662.125,-390.137,-26.367,-83.496,-325.195
1623120662.129,413.086,0.000,53.223,277.344
1623120662.133,422.363,-1.465,34.668,312.012
1623120662.137,-388.184,-28.809,-112.793,-300.293
1623120662.141,-552.246,-35.645,-105.957,-444.336
1623120662.144,224.121,-3.906,47.852,134.766
1623120662.148,539.062,2.441,70.801,400.391
1623120662.152,-178.711,-27.832,-79.102,-120.117
1623120662.156,-633.301,-38.574,-135.254,-481.934
1623120662.160,-0.977,-17.578,-0.977,-24.414
1623120662.176,573.242,-15.625,69.824,422.363
1623120662.180,58.594,-38.086,-37.598,57.617
1623120662.184,-612.793,-46.387,-118.652,-465.820
1623120662.188,-209.961,-29.785,-22.949,-190.430
1623120662.192,528.320,-11.719,66.895,381.836
1623120662.196,141.602,-33.691,-29.297,114.746
1623120662.200,-572.266,-59.570,-132.812,-429.199
1623120662.203,-392.578,-39.062,-67.871,-326.660
1623120662.207,377.441,-6.348,71.289,255.371
1623120662.211,466.309,-21.484,36.133,358.398
1623120662.215,-341.309,-40.039,-95.703,-254.883
1623120662.219,-564.453,-31.738,-97.168,-458.496
1623120662.221,196.289,-12.207,28.320,105.469
1623120662.225,570.801,-12.695,56.152,422.363
1623120662.229,-106.934,-33.203,-72.754,-62.012
1623120662.233,-614.258,-47.852,-130.371,-468.750
1623120662.237,-39.551,-30.762,-8.789,-66.406
1623120662.241,553.711,-10.254,77.148,401.367
1623120662.245,96.191,-28.809,-34.668,83.008
1623120662.248,-559.570,-47.852,-122.070,-427.734
1623120662.252,-264.648,-37.109,-50.293,-231.445
1623120662.256,461.426,-22.949,49.316,324.219
1623120662.260,315.430,-33.691,16.602,243.652
1623120662.264,-495.117,-61.523,-112.305,-372.559
1623120662.266,-489.258,-63.477,-88.379,-389.648
1623120662.270,323.730,-31.250,50.293,223.145
1623120662.274,477.051,-23.926,45.410,368.164
1623120662.278,-299.316,-52.246,-89.355,-206.055
1623120662.282,-554.688,-53.223,-109.375,-424.805
1623120662.286,163.574,-25.879,10.742,126.465
1623120662.290,564.941,-13.672,66.895,447.266
1623120662.293,-63.965,-32.715,-44.922,-25.879
1623120662.297,-622.070,-51.758,-142.578,-465.332
1623120662.301,-88.379,-26.855,-14.160,-102.539
1623120662.305,581.543,-8.301,84.473,415.039
1623120662.309,189.453,-22.461,-35.156,156.250
1623120662.311,-553.711,-36.133,-130.859,-412.109
1623120662.315,-295.898,-30.273,-55.176,-252.930
1623120662.319,478.516,-15.137,64.941,342.285
1623120662.323,370.605,-26.367,12.207,303.711
1623120662.327,-440.430,-58.105,-126.953,-309.570
1623120662.331,-494.629,-56.641,-106.934,-394.043
1623120662.335,308.594,-22.461,32.227,189.941
1623120662.338,527.344,-27.344,27.344,388.672
1623120662.342,-235.840,-53.711,-103.027,-164.551
1623120662.346,-605.469,-37.598,-109.375,-459.473
1623120662.350,83.984,-15.137,10.254,46.387
1623120662.354,578.613,-17.090,68.359,434.082
1623120662.356,0.000,-36.621,-51.758,11.719
1623120662.360,-620.605,-44.434,-134.277,-466.797
1623120662.364,-155.273,-29.297,-21.973,-145.996
1623120662.368,538.574,-20.020,76.660,391.602
1623120662.372,195.801,-41.504,-1.465,171.387
1623120662.376,-568.359,-52.734,-120.117,-416.504
1623120662.380,-377.441,-34.668,-70.312,-304.688
1623120662.383,415.527,-16.602,39.551,301.758
1623120662.387,394.531,-17.090,20.020,319.336
1623120662.391,-414.062,-37.109,-96.680,-298.340
1623120662.395,-535.645,-41.992,-105.957,-432.129
1623120662.399,264.160,-16.602,25.879,161.621
1623120662.401,553.711,-7.812,60.059,400.391
1623120662.405,-189.941,-36.133,-83.496,-161.133
1623120662.409,-603.516,-37.598,-134.277,-492.188
1623120662.413,49.805,-12.695,-7.812,-19.043
1623120662.417,555.664,-13.184,42.480,382.324
1623120662.421,33.691,-29.297,-62.500,16.602
1623120662.425,-612.305,-48.340,-143.555,-476.074
1623120662.428,-205.566,-38.574,-44.922,-185.059
1623120662.432,532.715,-7.812,91.309,382.324
1623120662.436,273.926,-18.066,9.766,210.938
1623120662.440,-520.996,-45.410,-132.324,-393.066
1623120662.444,-410.156,-34.180,-71.289,-333.496
1623120662.446,400.879,-11.719,62.012,276.367
1623120662.450,449.219,-13.184,33.203,345.703
1623120662.454,-363.770,-48.828,-115.234,-250.977
1623120662.458,-574.707,-52.246,-118.652,-427.246
1623120662.462,202.637,-14.648,16.602,143.555
1623120662.466,553.711,-25.391,52.734,432.129
1623120662.470,-149.902,-54.688,-72.754,-68.848
1623120662.473,-639.648,-45.410,-107.422,-452.637
1623120662.477,-28.809,-14.160,22.461,-32.227
1623120662.481,573.242,-0.977,86.426,430.664
1623120662.485,87.402,-24.414,-14.160,103.516
1623120662.489,-605.957,-45.898,-105.957,-425.293
1623120662.491,-244.141,-36.133,-43.945,-195.801
1623120662.495,520.508,-18.066,62.988,377.441
1623120662.499,316.406,-28.809,24.414,263.184
1623120662.503,-508.789,-53.223,-99.121,-370.605
1623120662.507,-476.074,-52.734,-74.707,-385.742
1623120662.511,351.074,-21.973,41.504,232.422
1623120662.515,462.891,-17.090,28.320,347.168
1623120662.518,-337.402,-49.316,-79.590,-238.770
1623120662.522,-553.223,-59.082,-95.215,-423.828
1623120662.526,180.176,-27.832,22.949,95.703
1623120662.530,570.312,-24.414,62.988,408.691
1623120662.534,-88.867,-53.223,-67.383,-56.152
1623120662.551,-631.836,-56.641,-138.184,-473.633
1623120662.555,-66.895,-28.320,-32.715,-76.172
1623120662.559,574.707,-6.836,70.312,411.621
1623120662.563,148.438,-31.250,-29.297,112.793
1623120662.567,-573.242,-48.828,-142.578,-433.594
1623120662.571,-282.715,-31.250,-71.777,-218.750
1623120662.575,492.188,-16.113,47.363,344.238
1623120662.578,364.258,-24.902,16.602,269.043
1623120662.582,-449.219,-37.598,-112.793,-330.078
1623120662.586,-469.727,-32.715,-106.934,-385.254
1623120662.590,338.379,-13.672,56.152,204.590
1623120662.594,523.438,-8.789,67.871,373.047
1623120662.596,-251.953,-36.621,-92.773,-190.918
1623120662.600,-582.031,-37.598,-107.910,-461.426
1623120662.604,134.766,-5.859,32.227,56.152
1623120662.608,587.402,-1.465,64.453,427.246
1623120662.612,-28.809,-19.043,-61.523,5.371
1623120662.616,-588.379,-45.410,-128.418,-430.176
1623120662.620,-113.770,-43.457,-33.203,-106.934
1623120662.623,553.711,-7.324,78.125,403.809
1623120662.627,206.055,-17.090,-9.277,169.434
1623120662.631,-557.129,-44.434,-129.395,-414.062
1623120662.635,-334.473,-20.996,-42.969,-278.320
1623120662.639,461.914,3.906,65.918,319.336
1623120662.641,397.949,-11.230,6.836,307.129
1623120662.645,-417.969,-39.062,-113.770,-302.246
1623120662.649,-515.137,-46.387,-102.539,-408.203
1623120662.653,282.227,-11.719,35.156,180.176
1623120662.657,522.949,-7.324,53.711,387.207
1623120662.661,-248.535,-37.598,-90.332,-173.340
1623120662.665,-624.023,-38.086,-127.441,-472.656
1623120662.668,62.988,-9.277,15.625,23.926
1623120662.672,578.125,-4.395,63.965,429.199
1623120662.676,13.672,-22.949,-40.039,26.367
1623120662.680,-619.141,-39.551,-119.629,-476.074
1623120662.684,-174.316,-33.691,-38.086,-170.410
1623120662.686,533.691,-15.625,72.266,375.000
1623120662.690,231.445,-25.879,4.395,174.805
1623120662.694,-546.387,-46.875,-124.512,-405.762
1623120662.698,-393.555,-40.039,-80.566,-319.824
1623120662.702,402.832,-13.184,44.922,277.832
1623120662.706,413.086,-13.672,20.996,321.777
1623120662.710,-389.160,-35.645,-105.469,-273.926
1623120662.713,-553.223,-41.016,-116.699,-427.734
1623120662.717,223.145,-24.902,14.160,145.020
1623120662.721,543.457,-9.277,62.988,418.945
1623120662.725,-169.434,-29.785,-83.984,-99.121
1623120662.729,-614.258,-42.969,-139.160,-471.680
1623120662.731,28.320,-13.672,10.254,-24.902
1623120662.735,595.215,2.930,81.055,421.875
1623120662.739,79.102,-17.578,-42.480,60.059
1623120662.743,-603.516,-42.969,-143.555,-463.379
1623120662.747,-226.074,-24.902,-46.875,-204.102
1623120662.751,503.418,-6.836,54.688,370.117
1623120662.755,281.250,-27.832,-12.695,237.793
1623120662.758,-514.160,-57.617,-140.137,-374.512
1623120662.762,-443.848,-42.969,-76.660,-354.492
1623120662.766,372.559,-13.184,65.430,254.883
1623120662.770,460.938,-16.113,35.645,349.609
1623120662.774,-339.355,-40.039,-90.332,-240.234
1623120662.776,-574.707,-44.434,-93.262,-440.430
1623120662.780,174.316,-16.602,30.762,105.957
1623120662.784,554.199,-1.953,66.406,415.039
1623120662.788,-121.094,-25.879,-62.500,-69.824
1623120662.792,-629.395,-40.527,-133.301,-470.215
1623120662.796,-44.434,-16.113,-19.531,-60.547
1623120662.800,567.871,2.441,56.152,422.852
1623120662.803,108.887,-21.484,-46.875,103.027
1623120662.807,-590.820,-39.551,-127.441,-456.543
1623120662.811,-223.145,-19.531,-45.898,-216.797
1623120662.815,512.695,-1.953,50.781,353.516
1623120662.819,327.148,-18.555,0.977,250.000
1623120662.821,-467.285,-38.574,-117.188,-358.887
1623120662.825,-461.914,-29.785,-92.285,-385.254
1623120662.829,347.168,-12.207,38.086,222.168
1623120662.833,515.137,-10.742,41.992,379.395
1623120662.837,-259.766,-24.902,-106.445,-195.312
1623120662.841,-574.707,-25.879,-134.766,-468.262
1623120662.845,128.418,-1.465,-3.906,49.805
1623120662.848,556.152,17.090,61.523,396.484
1623120662.852,-87.402,-5.859,-52.246,-78.125
1623120662.856,-637.695,-18.066,-120.605,-503.418
1623120662.860,-101.562,6.348,-10.742,-118.164
1623120662.864,552.246,32.227,73.730,386.719
1623120662.867,158.203,12.695,-24.902,112.793
1623120662.871,-578.125,-21.973,-139.648,-464.355
1623120662.875,-324.219,-9.766,-69.336,-305.664
1623120662.879,457.031,20.020,62.500,295.898
1623120662.883,372.559,9.277,18.066,263.672
1623120662.887,-434.082,-17.578,-128.418,-340.332
1623120662.891,-501.953,-4.883,-102.051,-407.227
1623120662.894,302.734,20.996,57.617,191.406
1623120662.898,525.391,18.066,59.082,381.348
1623120662.902,-271.484,-16.602,-108.887,-217.773
1623120662.906,-606.445,-23.438,-141.113,-500.000
1623120662.910,104.492,11.230,-1.953,18.555
1623120662.926,576.172,20.996,52.734,401.855
1623120662.930,-11.230,-9.277,-68.359,-11.230
1623120662.934,-611.816,-18.066,-141.602,-479.004
1623120662.938,-137.695,-5.859,-36.621,-153.320
1623120662.942,548.828,7.812,54.688,379.883
1623120662.946,216.309,-5.859,-38.086,173.828
1623120662.950,-538.086,-29.785,-129.883,-406.250
1623120662.953,-345.703,-22.461,-57.129,-298.828
1623120662.957,447.266,-1.465,52.246,304.688
1623120662.961,425.781,-4.883,16.602,321.289
1623120662.965,-374.023,-27.344,-110.840,-276.855
1623120662.969,-500.000,-28.809,-101.562,-402.344
1623120662.971,274.414,-4.395,28.809,169.922
1623120662.975,551.758,0.488,51.270,417.480
1623120662.979,-176.270,-24.414,-68.848,-113.281
1623120662.983,-603.516,-42.480,-121.582,-471.680
1623120662.987,29.297,-18.555,-7.812,-15.137
1623120662.991,539.062,-4.395,53.223,395.996
1623120662.995,21.973,-23.438,-57.129,34.180
1623120662.998,-610.352,-34.668,-128.418,-462.891
1623120663.002,-190.430,-19.043,-53.223,-187.500
1623120663.006,540.039,3.418,44.922,373.535
1623120663.010,268.066,-1.953,-1.465,197.266
1623120663.014,-522.949,-30.273,-120.117,-400.879
1623120663.016,-414.062,-29.785,-83.496,-336.914
1623120663.020,388.672,2.930,53.711,267.578
1623120663.024,442.871,0.000,35.645,329.590
1623120663.028,-363.281,-35.645,-114.258,-273.926
1623120663.032,-566.895,-41.504,-121.094,-428.223
1623120663.036,188.477,-14.160,15.625,124.023
1623120663.040,533.203,-4.395,57.617,403.320
1623120663.043,-147.461,-22.949,-71.777,-88.379
1623120663.047,-619.629,-37.109,-136.230,-464.844
1623120663.051,-12.695,-12.695,-3.418,-32.715
1623120663.055,586.914,8.789,86.426,429.688
1623120663.059,114.258,-12.207,-28.809,98.633
1623120663.061,-572.754,-33.203,-131.348,-422.852
1623120663.065,-226.562,-14.648,-39.551,-192.871
1623120663.069,514.648,6.836,72.754,364.746
1623120663.073,319.336,-2.930,3.418,247.070
1623120663.077,-477.539,-28.320,-125.977,-360.840
1623120663.081,-438.965,-30.762,-92.285,-362.305
1623120663.085,360.352,-7.324,35.156,236.328
1623120663.088,478.516,-6.348,27.832,360.840
1623120663.092,-316.406,-39.551,-104.980,-226.074
1623120663.096,-582.520,-43.945,-108.398,-455.566
1623120663.100,157.227,-13.184,27.832,93.750
1623120663.104,559.570,-12.695,58.594,423.828
1623120663.106,-90.332,-30.762,-53.711,-36.621
1623120663.110,-618.652,-44.434,-107.422,-454.102
1623120663.114,-73.730,-31.738,-24.414,-71.289
1623120663.118,553.711,-7.812,62.012,411.621
1623120663.122,138.672,-19.531,-20.508,115.234
1623120663.126,-582.031,-45.410,-138.184,-435.547
1623120663.130,-298.340,-32.227,-69.824,-251.953
1623120663.133,470.703,-4.395,40.527,336.914
1623120663.137,331.055,-10.742,3.418,268.555
1623120663.141,-473.145,-33.203,-119.141,-345.703
1623120663.145,-481.934,-25.391,-91.797,-381.348
1623120663.149,321.777,-1.465,46.387,222.168
1623120663.151,506.348,-2.930,50.293,382.812
1623120663.155,-265.137,-29.297,-102.051,-187.988
1623120663.159,-599.609,-41.992,-147.949,-468.262
1623120663.163,114.258,-4.883,-3.418,48.340
1623120663.167,568.359,3.906,61.035,416.016
1623120663.171,-70.801,-33.203,-73.242,-63.477
1623120663.175,-624.023,-44.434,-140.137,-481.445
1623120663.178,-109.375,-21.484,-27.344,-101.074
1623120663.182,556.641,-1.465,74.219,406.738
1623120663.186,201.172,-28.320,-14.648,163.574
1623120663.190,-556.152,-57.617,-141.113,-414.551
1623120663.194,-335.938,-30.273,-60.059,-276.367
1623120663.196,458.984,-6.348,68.848,316.895
1623120663.200,388.672,-19.043,13.672,292.480
1623120663.204,-428.223,-42.480,-121.582,-317.871
1623120663.208,-393.066,-32.715,-85.449,-325.195
1623120663.212,344.727,-6.348,37.598,219.238
1623120663.216,512.695,-5.859,35.645,375.977
1623120663.220,-207.031,-27.832,-100.098,-147.949
1623120663.223,-614.746,-35.645,-119.629,-476.562
1623120663.227,62.012,-22.949,16.113,6.836
1623120663.231,578.613,-14.160,55.664,416.504
1623120663.235,18.555,-32.227,-53.711,23.438
1623120663.239,-604.004,-51.758,-124.023,-472.656
1623120663.241,-165.527,-30.762,-34.180,-177.246
1623120663.245,531.250,-6.348,62.988,368.652
1623120663.249,226.562,-22.461,-4.883,173.828
1623120663.253,-554.688,-42.480,-118.164,-412.109
1623120663.257,-412.109,-38.086,-76.172,-334.473
1623120663.261,385.254,-27.344,37.109,269.043
1623120663.265,409.180,-33.203,29.297,327.637
1623120663.268,-392.090,-49.316,-83.008,-269.531
1623120663.272,-561.035,-43.457,-98.145,-438.477
1623120663.276,225.586,-19.043,33.203,124.512
1623120663.280,553.711,-6.836,58.594,396.484
1623120663.284,-170.898,-30.273,-65.430,-118.652
1623120663.301,-636.719,-54.688,-109.375,-479.492
1623120663.305,2.930,-33.691,1.953,-18.555
1623120663.309,583.984,-4.395,80.566,434.082
1623120663.313,65.430,-25.391,-4.395,70.312
1623120663.317,-605.469,-49.316,-102.539,-440.430
1623120663.321,-186.523,-28.320,-52.246,-160.156
1623120663.325,526.855,-7.324,54.688,372.559
1623120663.328,276.367,-19.043,10.254,218.262
1623120663.332,-506.348,-44.434,-124.512,-364.258
1623120663.336,-425.781,-40.039,-89.355,-326.660
1623120663.340,391.113,-3.418,81.543,270.996
1623120663.344,468.262,-2.930,70.801,362.793
1623120663.346,-340.820,-37.598,-98.633,-229.004
1623120663.350,-569.336,-44.434,-111.328,-438.477
1623120663.354,187.012,-15.625,31.738,114.258
1623120663.358,560.547,-8.789,67.383,426.270
1623120663.362,-109.375,-29.785,-61.035,-79.102
1623120663.366,-605.469,-37.109,-115.234,-473.145
1623120663.370,-29.785,-21.973,4.395,-54.199
1623120663.373,583.984,0.488,87.891,432.129
1623120663.377,135.742,-25.391,-36.621,132.324
1623120663.381,-580.078,-54.199,-140.137,-416.504
1623120663.385,-272.949,-30.762,-31.250,-224.609
1623120663.389,474.121,-12.695,76.172,339.355
1623120663.391,313.477,-24.414,4.395,266.113
1623120663.395,-478.516,-40.527,-107.422,-324.707
1623120663.399,-459.473,-39.551,-72.266,-358.887
1623120663.403,339.355,-17.090,42.969,222.656
1623120663.407,454.590,-21.484,22.461,337.891
1623120663.411,-295.898,-50.293,-106.445,-216.309
1623120663.415,-577.637,-48.340,-115.723,-453.125
1623120663.418,142.578,-20.996,14.648,61.523
1623120663.422,583.984,-18.555,45.410,416.016
1623120663.426,-62.500,-39.062,-63.477,-48.340
1623120663.430,-629.883,-43.945,-124.512,-485.840
1623120663.434,-104.004,-25.391,-28.320,-101.074
1623120663.436,549.316,-13.672,73.730,404.785
1623120663.440,154.785,-29.785,-0.977,130.371
1623120663.444,-581.543,-50.781,-125.488,-437.012
1623120663.448,-329.590,-35.645,-61.523,-276.855
1623120663.452,450.195,-14.648,66.895,316.895
1623120663.456,369.141,-24.902,-2.441,286.133
1623120663.460,-441.895,-44.922,-131.836,-319.824
1623120663.463,-500.000,-40.039,-95.703,-384.277
1623120663.467,300.293,-14.648,29.785,216.309
1623120663.471,512.695,-12.207,47.852,378.418
1623120663.475,-240.723,-44.434,-90.332,-163.574
1623120663.479,-597.168,-51.270,-124.023,-446.777
1623120663.481,90.332,-26.855,16.113,39.551
1623120663.485,583.984,-13.184,83.008,424.805
1623120663.489,-12.695,-32.227,-47.363,-7.812
1623120663.493,-623.047,-45.898,-137.695,-473.633
1623120663.497,-114.258,-20.020,-20.996,-110.840
1623120663.501,554.688,-7.812,54.199,398.438
1623120663.505,217.285,-27.344,-31.250,162.109
1623120663.508,-538.574,-53.223,-133.301,-417.480
1623120663.512,-363.281,-41.504,-51.270,-306.641
1623120663.516,436.035,-13.184,74.707,297.852
1623120663.520,412.598,-20.508,16.602,311.523
1623120663.524,-398.926,-51.270,-123.535,-290.039
1623120663.526,-528.809,-41.016,-102.539,-424.316
1623120663.530,249.512,-10.742,34.180,158.691
1623120663.534,537.109,-23.438,49.805,416.992
1623120663.538,-196.289,-51.270,-81.055,-128.418
1623120663.542,-631.348,-50.781,-120.605,-481.445
1623120663.546,9.766,-22.949,1.953,-15.137
1623120663.550,555.664,-6.836,62.012,418.945
1623120663.553,38.086,-32.227,-62.988,62.988
1623120663.557,-606.445,-47.852,-125.000,-447.266
1623120663.561,-195.801,-30.273,-25.879,-168.457
1623120663.565,519.043,-17.578,64.941,385.254
1623120663.569,254.883,-27.832,2.441,208.984
1623120663.571,-517.578,-37.109,-105.469,-384.766
1623120663.575,-402.832,-29.297,-61.523,-327.148
1623120663.579,393.555,-14.648,45.898,276.367
1623120663.583,439.453,-24.414,26.367,333.496
1623120663.587,-348.633,-50.293,-104.980,-265.625
1623120663.591,-542.480,-51.270,-121.094,-436.035
1623120663.595,207.031,-25.391,5.859,131.836
1623120663.598,553.223,-10.254,54.688,420.898
1623120663.602,-129.883,-29.785,-63.965,-92.773
1623120663.606,-604.980,-50.293,-136.230,-486.816
1623120663.610,-10.254,-34.180,-20.996,-59.082
1623120663.614,567.383,-7.812,64.941,404.785
1623120663.616,93.750,-26.367,-32.715,74.219
1623120663.620,-596.191,-53.223,-135.254,-458.008
1623120663.624,-258.789,-40.527,-56.641,-226.562
1623120663.628,489.258,-15.137,62.500,351.074
1623120663.632,296.875,-28.320,-1.465,239.258
1623120663.636,-502.930,-57.129,-136.230,-364.258
1623120663.640,-456.055,-54.199,-101.562,-362.305
1623120663.643,352.539,-15.137,63.965,244.141
1623120663.647,467.773,-14.648,60.547,369.141
1623120663.651,-311.035,-50.293,-101.562,-210.449
1623120663.655,-568.359,-45.410,-120.117,-437.988
1623120663.659,165.527,-12.207,24.414,90.820
1623120663.676,565.430,-2.441,61.523,421.875
1623120663.680,-79.590,-29.785,-75.195,-48.340
1623120663.684,-597.656,-49.805,-129.883,-473.145
1623120663.688,-53.711,-25.391,-5.371,-83.008
1623120663.692,577.148,2.441,84.961,424.316
1623120663.696,163.086,-26.855,-26.855,138.672
1623120663.700,-559.082,-53.711,-144.531,-422.852
1623120663.703,-270.996,-28.320,-58.594,-238.770
1623120663.707,500.977,4.395,68.848,363.770
1623120663.711,364.258,-17.578,6.836,308.594
1623120663.715,-438.965,-42.480,-111.328,-314.941
1623120663.719,-458.496,-25.391,-70.801,-371.582
1623120663.721,326.660,-0.977,53.711,222.168
1623120663.725,501.953,-5.859,63.477,394.043
1623120663.729,-256.836,-35.156,-74.707,-168.457
1623120663.733,-574.707,-47.852,-118.652,-435.059
1623120663.737,94.727,-25.879,23.926,64.941
1623120663.741,501.953,-15.625,65.430,404.785
1623120663.745,-65.430,-28.320,-55.664,-10.742
1623120663.748,-614.258,-35.156,-116.211,-461.914
1623120663.752,-126.953,-26.855,-18.555,-128.418
1623120663.756,538.574,-7.812,62.012,408.691
1623120663.760,180.664,-18.066,-5.859,169.922
1623120663.764,-549.805,-36.621,-111.816,-417.480
1623120663.766,-332.031,-28.809,-73.730,-289.551
1623120663.770,438.965,-7.812,53.223,309.570
1623120663.774,380.371,-12.695,25.879,300.781
1623120663.778,-419.434,-41.016,-121.582,-317.871
1623120663.782,-510.742,-48.828,-116.699,-417.480
1623120663.786,268.555,-22.949,35.645,181.641
1623120663.790,517.578,-21.973,57.129,402.832
1623120663.793,-206.055,-37.109,-78.613,-145.508
1623120663.797,-598.633,-49.805,-121.582,-478.516
