timestamps,TP9,AF7,AF8,TP10
1623120416.131,-1000.000,-42.480,-89.844,-972.656
1623120416.135,-506.836,-35.645,-49.805,-613.281
1623120416.139,-999.023,-9.277,35.645,791.504
1623120416.143,652.832,-22.461,8.789,703.613
1623120416.147,-841.309,-54.199,-82.520,-680.176
1623120416.151,-865.723,-50.781,-82.520,-871.094
1623120416.155,567.871,-28.809,-2.441,450.684
1623120416.158,-998.535,-28.320,9.277,948.730
1623120416.162,-330.078,-59.082,-74.707,-295.898
1623120416.166,-1000.000,-71.777,-93.750,-1000.000
1623120416.170,87.891,-42.969,-16.602,61.035
1623120416.174,-823.730,-35.645,23.438,-927.246
1623120416.192,75.684,-62.988,-54.199,116.211
1623120416.196,-1000.000,-76.660,-107.910,-1000.000
1623120416.200,-263.184,-60.059,-28.320,-353.027
1623120416.204,-839.355,-37.598,33.691,980.957
1623120416.208,400.391,-47.852,-21.973,520.508
1623120416.212,-1000.000,-79.102,-98.633,-881.348
1623120416.216,-578.125,-73.242,-63.965,-671.387
1623120416.219,927.246,-41.992,20.996,719.727
1623120416.223,747.559,-44.922,-9.766,789.551
1623120416.227,-726.562,-73.242,-103.027,-565.430
1623120416.231,-925.293,-71.777,-81.055,-908.691
1623120416.235,480.469,-39.551,15.625,386.719
1623120416.236,-942.871,-38.086,19.043,998.535
1623120416.240,-226.074,-65.430,-80.566,-192.871
1623120416.244,-1000.000,-63.477,-104.492,-1000.000
1623120416.248,14.160,-35.645,-12.695,-36.621
1623120416.252,-809.570,-32.715,23.926,-928.223
1623120416.256,144.043,-55.664,-55.664,210.449
1623120416.260,-1000.000,-70.312,-104.492,-1000.000
1623120416.263,-326.172,-47.852,-29.785,-435.547
1623120416.267,-865.234,-28.809,34.668,935.059
1623120416.271,458.984,-51.270,-18.555,571.289
1623120416.275,-1000.000,-72.266,-93.750,-834.961
1623120416.279,-662.109,-53.711,-53.223,-743.164
1623120416.281,833.008,-27.832,33.691,641.113
1623120416.285,823.242,-39.062,10.742,831.055
1623120416.289,-621.582,-63.965,-76.172,-506.348
1623120416.293,-1000.000,-62.012,-72.266,-961.914
1623120416.297,354.004,-30.762,17.578,292.969
1623120416.301,-906.738,-21.973,32.227,-971.191
1623120416.305,-144.531,-44.434,-51.270,-116.699
1623120416.308,-1000.000,-47.852,-84.473,-1000.000
1623120416.312,-81.055,-29.297,-12.695,-124.023
1623120416.316,-806.641,-21.484,46.387,-931.641
1623120416.320,216.797,-36.621,-19.531,294.434
1623120416.324,-1000.000,-52.246,-93.262,-1000.000
1623120416.327,-395.020,-39.551,-33.691,-502.441
1623120416.331,-908.691,-18.555,37.109,885.742
1623120416.335,544.434,-29.297,-10.742,631.348
1623120416.339,-965.820,-53.223,-92.773,-762.695
1623120416.343,-738.770,-38.086,-59.570,-800.781
1623120416.347,745.117,-12.695,28.320,564.941
1623120416.351,889.648,-21.484,14.648,880.371
1623120416.354,-518.555,-47.363,-82.031,-424.805
1623120416.358,-1000.000,-48.340,-87.891,-1000.000
1623120416.362,246.094,-20.996,17.090,194.336
1623120416.366,-866.699,-16.602,40.527,-947.266
1623120416.370,-53.711,-37.598,-53.711,-30.762
1623120416.372,-1000.000,-47.852,-104.492,-1000.000
1623120416.376,-149.902,-29.785,-25.879,-224.609
1623120416.380,-811.523,-13.672,29.785,-965.332
1623120416.384,284.180,-32.227,-28.809,377.441
1623120416.388,-1000.000,-49.316,-90.332,-992.676
1623120416.392,-465.332,-37.109,-45.410,-589.355
1623120416.396,-961.426,-20.508,31.250,803.711
1623120416.399,613.281,-37.598,-8.789,695.801
1623120416.403,-888.672,-62.988,-93.262,-691.406
1623120416.407,-818.848,-47.852,-60.547,-848.633
1623120416.411,638.184,-27.344,29.785,494.629
1623120416.415,956.543,-32.227,21.973,915.039
1623120416.417,-408.203,-51.270,-67.871,-355.957
1623120416.421,-1000.000,-55.664,-80.078,-1000.000
1623120416.425,141.113,-28.320,-0.488,102.051
1623120416.429,-839.355,-17.578,25.879,-932.129
1623120416.433,25.879,-38.574,-47.363,55.664
1623120416.437,-1000.000,-52.734,-89.844,-1000.000
1623120416.441,-229.492,-37.109,-23.926,-315.918
1623120416.444,-828.125,-17.578,37.109,993.652
1623120416.448,338.867,-30.273,-12.695,435.059
1623120416.452,-1000.000,-55.176,-90.820,-945.312
1623120416.456,-551.270,-44.434,-50.293,-654.297
1623120416.460,955.078,-13.184,34.180,740.234
1623120416.462,689.941,-24.414,4.395,741.699
1623120416.466,-800.293,-62.500,-79.102,-631.348
1623120416.470,-900.879,-52.734,-71.289,-898.438
1623120416.474,545.898,-17.090,9.766,437.012
1623120416.478,968.262,-29.785,27.832,919.434
1623120416.482,-379.395,-58.594,-51.758,-342.285
1623120416.486,-1000.000,-57.617,-83.984,-1000.000
1623120416.489,54.199,-37.598,-2.930,23.438
1623120416.493,-821.289,-29.785,46.387,-931.641
1623120416.497,99.121,-46.875,-37.109,145.020
1623120416.501,-1000.000,-61.523,-98.633,-1000.000
1623120416.505,-290.039,-45.410,-26.855,-395.508
1623120416.507,-847.656,-23.926,39.551,954.102
1623120416.511,413.086,-36.133,-20.508,532.715
1623120416.515,-1000.000,-59.082,-96.680,-867.676
1623120416.519,-619.141,-49.316,-49.805,-709.473
1623120416.523,884.766,-23.926,34.668,673.828
1623120416.527,763.184,-31.738,-1.465,807.617
1623120416.531,-704.102,-57.617,-93.262,-539.551
1623120416.534,-971.191,-39.551,-71.289,-941.895
1623120416.538,413.086,-17.578,15.625,327.637
1623120416.542,-940.430,-25.391,23.438,-999.023
1623120416.546,-211.426,-47.852,-57.617,-178.223
1623120416.550,-1000.000,-54.199,-87.402,-1000.000
1623120416.567,-40.527,-32.227,-19.043,-80.078
1623120416.571,-810.547,-18.066,26.367,-939.941
1623120416.575,170.410,-34.180,-26.855,240.723
1623120416.579,-1000.000,-52.246,-90.332,-1000.000
1623120416.583,-358.398,-40.039,-41.504,-471.680
1623120416.587,-883.301,-19.043,37.598,909.668
1623120416.591,490.723,-29.785,-0.977,577.637
1623120416.594,-1000.000,-55.176,-83.008,-827.637
1623120416.598,-690.918,-45.898,-55.664,-765.137
1623120416.602,799.805,-20.020,24.902,604.492
1623120416.606,846.680,-14.648,18.555,851.074
1623120416.610,-585.449,-35.645,-59.570,-468.750
1623120416.612,-1000.000,-41.504,-68.359,-980.957
1623120416.616,310.059,-18.555,12.695,255.859
1623120416.620,-889.160,-3.906,41.504,-957.520
1623120416.624,-105.469,-27.832,-42.969,-80.078
1623120416.628,-1000.000,-53.223,-87.402,-1000.000
1623120416.632,-114.258,-29.297,-18.555,-156.738
1623120416.636,-809.570,3.418,42.480,-941.895
1623120416.639,241.699,-11.719,-13.672,328.125
1623120416.643,-1000.000,-38.086,-92.285,-1000.000
1623120416.647,-426.270,-24.414,-41.016,-542.969
1623120416.651,-930.664,-0.977,45.898,843.750
1623120416.655,567.383,-11.719,-0.488,643.555
1623120416.656,-941.406,-38.574,-93.262,-746.094
1623120416.660,-772.461,-32.715,-68.359,-820.801
1623120416.664,700.684,2.441,26.367,531.738
1623120416.668,916.016,-5.371,15.137,889.160
1623120416.672,-476.074,-38.574,-75.684,-405.762
1623120416.676,-1000.000,-42.969,-89.355,-1000.000
1623120416.680,198.242,-19.043,-0.488,154.785
1623120416.683,-855.957,-12.695,30.762,-948.242
1623120416.687,-27.344,-44.434,-66.895,-5.859
1623120416.691,-1000.000,-52.734,-101.562,-1000.000
1623120416.695,-182.129,-20.996,-11.719,-260.742
1623120416.699,-818.359,-2.441,47.363,-980.469
1623120416.701,302.734,-31.738,-21.484,411.133
1623120416.705,-1000.000,-54.688,-90.820,-967.285
1623120416.709,-497.559,-29.785,-31.738,-619.141
1623120416.713,-991.211,-6.836,42.969,780.762
1623120416.717,642.578,-20.020,-1.953,701.172
1623120416.721,-856.445,-43.945,-89.844,-688.477
1623120416.725,-848.145,-34.180,-65.430,-865.723
1623120416.728,597.656,-10.742,16.113,462.402
1623120416.732,980.469,-9.766,11.719,935.059
1623120416.736,-366.699,-27.344,-56.641,-319.824
1623120416.740,-1000.000,-32.715,-74.707,-1000.000
1623120416.744,106.934,-15.137,-2.441,66.895
1623120416.746,-828.613,-3.906,26.855,-931.152
1623120416.750,57.617,-24.902,-48.340,97.168
1623120416.754,-1000.000,-42.969,-93.262,-1000.000
1623120416.758,-252.441,-20.996,-26.367,-340.332
1623120416.762,-834.961,-5.859,36.621,986.328
1623120416.766,372.559,-22.461,-17.578,485.352
1623120416.770,-1000.000,-39.551,-86.914,-910.645
1623120416.773,-575.195,-31.738,-53.223,-670.410
1623120416.777,929.688,-6.348,37.109,723.145
1623120416.781,723.145,-13.672,24.902,769.043
1623120416.785,-756.836,-38.574,-73.242,-590.820
1623120416.789,-924.316,-33.691,-65.430,-921.875
1623120416.791,485.840,-7.812,30.273,372.070
1623120416.795,-966.797,-11.230,35.645,969.238
1623120416.799,-267.578,-45.410,-60.547,-242.676
1623120416.803,-1000.000,-50.293,-82.031,-1000.000
1623120416.807,18.555,-23.926,0.488,-30.273
1623120416.811,-815.430,-20.020,32.715,-926.758
1623120416.815,124.512,-41.992,-47.852,183.105
1623120416.818,-1000.000,-54.688,-102.051,-1000.000
1623120416.822,-322.754,-34.180,-23.438,-432.617
1623120416.826,-858.398,-9.277,45.898,936.523
1623120416.830,427.734,-27.344,-16.602,537.598
1623120416.834,-1000.000,-45.898,-92.285,-823.730
1623120416.837,-593.750,-31.738,-48.340,-680.664
1623120416.841,843.750,-13.184,32.227,651.367
1623120416.845,794.434,-20.020,7.324,813.965
1623120416.849,-658.203,-45.410,-85.449,-529.785
1623120416.853,-993.164,-37.598,-83.984,-967.285
1623120416.857,373.535,-11.230,1.953,291.992
1623120416.861,-917.969,-15.625,3.906,-986.816
1623120416.864,-168.457,-30.273,-67.871,-149.902
1623120416.868,-1000.000,-34.668,-85.449,-1000.000
1623120416.872,-63.965,-13.184,-24.414,-123.535
1623120416.876,-808.105,9.277,26.367,-946.777
1623120416.880,194.336,-14.160,-37.109,270.996
1623120416.882,-1000.000,-36.133,-102.539,-1000.000
1623120416.886,-384.277,-18.066,-43.945,-504.883
1623120416.890,-900.391,3.418,30.762,879.883
1623120416.894,521.484,-7.324,-5.371,611.328
1623120416.898,-990.234,-37.109,-89.844,-786.133
1623120416.902,-724.121,-39.062,-77.637,-787.109
1623120416.906,763.184,-12.207,11.719,576.660
1623120416.909,866.699,-6.836,22.461,867.676
1623120416.913,-552.734,-39.062,-72.266,-444.336
1623120416.917,-1000.000,-51.758,-83.984,-1000.000
1623120416.921,282.715,-30.273,11.230,237.793
1623120416.925,-932.129,-22.949,34.668,996.094
1623120416.941,-162.598,-46.875,-51.758,-129.395
1623120416.945,-1000.000,-50.781,-85.449,-1000.000
1623120416.949,-140.137,-30.762,-3.906,-206.055
1623120416.953,-813.965,-20.508,48.828,-966.309
1623120416.957,256.836,-40.039,-18.555,351.074
1623120416.961,-1000.000,-63.477,-97.168,-1000.000
1623120416.965,-453.125,-46.387,-39.551,-565.918
1623120416.968,-954.102,-18.555,51.758,824.707
1623120416.972,599.609,-28.320,4.883,680.664
1623120416.976,-905.762,-54.199,-87.891,-703.125
1623120416.980,-805.664,-37.598,-61.035,-838.379
1623120416.984,657.227,-3.906,26.367,504.395
1623120416.987,942.871,-9.766,19.043,911.621
1623120416.991,-435.547,-36.621,-68.359,-364.258
1623120416.995,-1000.000,-36.621,-80.566,-1000.000
1623120416.999,172.852,-6.348,8.789,116.699
1623120417.003,-847.168,0.000,31.738,-939.941
1623120417.007,0.488,-31.738,-62.012,36.621
1623120417.011,-1000.000,-43.457,-107.422,-1000.000
1623120417.014,-209.961,-21.484,-23.438,-296.875
1623120417.018,-823.730,-9.277,32.715,-993.164
1623120417.022,325.684,-25.879,-27.832,447.754
1623120417.026,-1000.000,-41.016,-87.891,-946.289
1623120417.030,-526.855,-26.367,-45.410,-633.789
1623120417.032,980.469,-7.812,30.762,763.184
1623120417.036,668.457,-20.020,-1.465,732.422
1623120417.040,-823.242,-39.551,-87.402,-641.602
1623120417.044,-882.324,-34.668,-62.988,-885.742
1623120417.048,545.898,-14.160,27.344,426.270
1623120417.052,-995.605,-16.113,23.926,954.102
1623120417.056,-323.730,-37.109,-58.105,-281.738
1623120417.059,-1000.000,-43.945,-82.520,-1000.000
1623120417.063,71.777,-26.367,-10.254,40.527
1623120417.067,-823.730,-14.648,38.086,-938.477
1623120417.071,82.031,-31.738,-24.414,110.840
1623120417.075,-1000.000,-42.969,-90.332,-1000.000
1623120417.077,-274.902,-20.508,-26.855,-364.258
1623120417.081,-844.238,0.488,49.316,961.426
1623120417.085,407.227,-12.695,-0.977,510.742
1623120417.089,-1000.000,-41.504,-88.867,-890.625
1623120417.093,-581.543,-35.156,-52.734,-679.688
1623120417.097,935.547,-13.184,30.762,718.750
1623120417.101,744.629,-20.020,-2.441,776.855
1623120417.104,-721.680,-47.852,-93.262,-569.336
1623120417.108,-955.078,-51.758,-79.102,-943.359
1623120417.112,435.547,-17.090,24.414,327.148
1623120417.116,-944.336,-13.184,25.879,982.422
1623120417.120,-225.586,-42.480,-74.707,-210.449
1623120417.122,-1000.000,-44.434,-102.539,-1000.000
1623120417.126,-12.695,-20.020,-12.207,-59.570
1623120417.130,-810.059,-13.184,32.227,-927.734
1623120417.134,156.738,-34.180,-27.832,208.496
1623120417.138,-1000.000,-46.387,-82.520,-1000.000
1623120417.142,-346.191,-33.203,-33.203,-408.691
1623120417.146,-875.000,-12.207,39.551,891.113
1623120417.149,466.797,-20.508,-7.324,573.730
1623120417.153,-1000.000,-42.969,-82.520,-826.172
1623120417.157,-677.246,-34.668,-45.410,-755.371
1623120417.161,814.941,-10.742,31.250,621.582
1623120417.165,828.613,-13.184,8.301,830.566
1623120417.166,-611.816,-37.598,-75.195,-499.512
1623120417.170,-1000.000,-38.086,-70.801,-981.934
1623120417.174,331.543,-19.531,11.230,256.836
1623120417.178,-900.391,-17.090,25.391,-979.980
1623120417.182,-131.836,-36.621,-54.688,-117.188
1623120417.186,-1000.000,-48.828,-90.332,-1000.000
1623120417.190,-95.703,-31.738,-12.207,-149.902
1623120417.193,-808.594,-20.020,45.898,-946.289
1623120417.197,224.609,-33.691,-11.719,310.059
1623120417.201,-1000.000,-48.828,-84.961,-1000.000
1623120417.205,-415.039,-35.156,-38.574,-518.066
1623120417.209,-923.340,-12.207,40.527,860.840
1623120417.212,552.246,-25.879,-2.441,639.648
1623120417.216,-958.984,-45.410,-84.961,-750.000
1623120417.220,-750.000,-32.227,-52.246,-806.152
1623120417.224,726.562,-10.254,36.133,550.781
1623120417.228,905.762,-14.648,20.020,884.277
1623120417.232,-492.676,-44.434,-82.031,-415.527
1623120417.236,-1000.000,-53.711,-93.750,-1000.000
1623120417.239,226.074,-21.484,3.418,180.176
1623120417.243,-859.375,0.488,46.875,-944.824
1623120417.247,-36.621,-23.926,-46.875,-9.766
1623120417.251,-1000.000,-41.992,-96.191,-1000.000
1623120417.255,-167.969,-20.996,-12.695,-250.000
1623120417.257,-814.453,-1.953,42.969,-980.469
1623120417.261,288.086,-26.855,-30.762,384.766
1623120417.265,-1000.000,-54.688,-105.957,-987.305
1623120417.269,-484.863,-38.574,-52.246,-602.539
1623120417.273,-981.934,-13.184,23.438,789.551
1623120417.277,629.883,-22.461,-13.672,698.242
1623120417.281,-872.559,-40.039,-92.285,-680.176
1623120417.284,-829.590,-28.809,-66.895,-862.793
1623120417.288,623.047,-10.254,19.531,466.797
1623120417.292,964.844,-13.672,15.137,929.199
1623120417.296,-390.625,-39.551,-69.336,-329.102
1623120417.300,-1000.000,-44.922,-84.473,-1000.000
1623120417.316,124.023,-23.438,-13.672,70.801
1623120417.320,-838.379,-10.742,20.020,-934.082
1623120417.324,30.762,-35.156,-53.711,75.195
1623120417.328,-1000.000,-53.223,-98.633,-1000.000
1623120417.332,-236.816,-28.320,-23.926,-328.125
1623120417.336,-830.566,-6.348,33.203,990.723
1623120417.340,355.957,-26.367,-29.785,463.867
1623120417.343,-1000.000,-51.758,-95.215,-928.223
1623120417.347,-556.641,-37.109,-48.340,-652.344
1623120417.351,949.219,-13.672,32.715,739.746
1623120417.355,702.148,-20.020,9.766,746.582
1623120417.359,-780.273,-41.504,-79.102,-619.141
1623120417.361,-913.574,-35.156,-74.707,-905.762
1623120417.365,499.512,-9.766,12.207,396.484
1623120417.369,-974.609,-5.859,23.438,963.379
1623120417.373,-283.203,-27.344,-60.547,-250.977
1623120417.377,-1000.000,-33.691,-83.984,-1000.000
1623120417.381,36.621,-13.672,-3.418,-15.137
1623120417.385,-817.871,0.488,41.504,-936.035
1623120417.388,109.863,-18.066,-30.273,162.598
1623120417.392,-1000.000,-41.992,-95.703,-1000.000
1623120417.396,-308.594,-25.879,-37.598,-418.457
1623120417.400,-855.957,6.348,39.551,940.430
1623120417.404,428.223,-4.883,-15.625,516.113
1623120417.406,-1000.000,-36.621,-101.562,-891.602
1623120417.410,-630.371,-24.414,-57.129,-720.703
1623120417.414,868.164,4.395,28.320,656.738
1623120417.418,788.574,-4.395,8.789,808.594
1623120417.422,-687.988,-36.621,-77.637,-557.129
1623120417.426,-938.477,-41.016,-72.266,-910.156
1623120417.430,459.473,-17.090,17.578,379.395
1623120417.433,-934.570,-16.113,24.902,991.211
1623120417.437,-186.035,-45.410,-69.336,-170.410
1623120417.441,-1000.000,-54.199,-97.656,-1000.000
1623120417.445,-43.945,-20.508,-1.465,-104.004
1623120417.449,-808.594,-4.883,41.504,-947.266
1623120417.451,183.594,-26.367,-32.715,252.930
1623120417.455,-1000.000,-40.039,-85.449,-1000.000
1623120417.459,-366.211,-24.414,-24.902,-498.047
1623120417.463,-887.207,-13.184,39.062,882.324
1623120417.467,494.629,-30.762,-8.789,581.055
1623120417.471,-1000.000,-54.688,-90.820,-822.266
1623120417.475,-708.008,-43.457,-54.199,-778.320
1623120417.478,780.273,-22.461,30.762,591.309
1623120417.482,849.121,-31.738,6.836,842.285
1623120417.486,-579.102,-53.711,-75.195,-478.516
1623120417.490,-1000.000,-55.176,-83.984,-999.023
1623120417.494,283.691,-27.832,7.324,218.262
1623120417.497,-886.230,-19.043,36.133,-972.656
1623120417.501,-97.656,-35.156,-53.223,-89.355
1623120417.505,-1000.000,-39.062,-90.820,-1000.000
1623120417.509,-122.559,-13.672,-7.324,-177.734
1623120417.513,-810.547,3.906,42.969,989.258
1623120417.517,250.488,-22.949,-34.180,266.113
1623120417.521,-1000.000,-42.480,-99.121,-1000.000
1623120417.524,-439.453,-31.250,-55.664,-563.477
1623120417.528,-942.871,-15.137,25.391,827.637
1623120417.532,585.938,-15.137,11.230,659.180
1623120417.536,-920.898,-39.551,-82.520,-728.027
1623120417.540,-786.133,-40.039,-69.336,-830.566
1623120417.542,682.129,-14.648,21.484,511.719
1623120417.546,929.199,-11.719,20.996,897.461
1623120417.550,-452.148,-38.086,-69.336,-382.812
1623120417.554,-1000.000,-46.875,-88.379,-1000.000
1623120417.558,184.570,-17.578,-1.465,139.648
1623120417.562,-853.516,-10.254,23.438,-946.777
1623120417.566,-16.602,-38.086,-61.035,5.371
1623120417.569,-1000.000,-46.875,-92.773,-1000.000
1623120417.573,-200.684,-23.438,-7.324,-285.645
1623120417.577,-822.266,-9.766,45.410,998.535
1623120417.581,312.012,-24.902,-18.555,412.109
1623120417.585,-1000.000,-41.992,-90.820,-963.379
1623120417.586,-512.695,-29.785,-43.945,-625.000
1623120417.590,994.141,-7.812,37.109,764.648
1623120417.594,650.879,-18.066,3.906,717.285
1623120417.598,-845.215,-43.945,-79.590,-661.621
1623120417.602,-861.328,-36.133,-55.664,-875.000
1623120417.606,580.078,-10.742,25.879,447.266
1623120417.610,979.980,-16.602,12.695,941.895
1623120417.613,-365.723,-40.527,-69.824,-302.734
1623120417.617,-1000.000,-39.062,-78.613,-1000.000
1623120417.621,96.191,-18.555,2.930,29.297
1623120417.625,-827.637,-12.207,42.480,-951.172
1623120417.629,65.918,-34.668,-34.180,102.051
1623120417.631,-1000.000,-50.781,-86.914,-1000.000
1623120417.635,-261.230,-34.668,-25.879,-361.328
1623120417.639,-838.867,-11.719,37.109,969.238
1623120417.643,390.137,-24.902,-10.742,499.023
1623120417.647,-1000.000,-49.805,-85.449,-895.020
1623120417.651,-584.961,-37.109,-57.129,-677.246
1623120417.655,919.434,-11.230,26.367,712.402
1623120417.658,739.746,-5.859,21.973,780.273
1623120417.662,-734.375,-32.715,-73.242,-578.613
1623120417.666,-937.988,-44.922,-82.520,-926.758
1623120417.670,463.867,-22.949,7.324,358.887
1623120417.674,-958.984,-16.602,30.762,976.562
1623120417.692,-249.512,-45.410,-67.871,-223.145
1623120417.696,-1000.000,-53.711,-98.633,-1000.000
1623120417.700,2.930,-24.902,0.977,-46.875
1623120417.704,-812.012,-8.301,47.363,-942.871
1623120417.708,141.113,-31.738,-26.855,202.148
1623120417.712,-1000.000,-53.711,-90.332,-1000.000
1623120417.716,-334.961,-34.668,-25.391,-443.848
1623120417.719,-870.605,-12.207,49.805,917.480
1623120417.723,458.984,-22.461,-9.277,567.871
1623120417.727,-1000.000,-44.434,-97.656,-823.242
1623120417.731,-662.598,-32.715,-47.852,-746.582
1623120417.735,833.984,-7.812,43.457,629.883
1623120417.736,808.594,-17.578,15.137,823.242
1623120417.740,-637.695,-41.016,-71.289,-511.719
1623120417.744,-1000.000,-41.016,-69.824,-979.980
1623120417.748,373.535,-17.090,15.137,307.129
1623120417.752,-963.379,-12.695,27.344,934.082
1623120417.756,-233.887,-40.039,-62.988,-268.555
1623120417.760,-1000.000,-44.434,-97.168,-1000.000
1623120417.763,-75.684,-17.090,-12.695,-137.207
1623120417.767,-809.570,-7.324,33.691,-954.102
1623120417.771,207.031,-26.367,-41.016,292.969
1623120417.775,-1000.000,-41.016,-95.215,-1000.000
1623120417.779,-396.973,-24.414,-25.879,-520.508
1623120417.782,-912.109,-3.418,40.527,855.469
1623120417.786,541.992,-14.648,-10.742,634.766
1623120417.790,-967.773,-38.574,-83.008,-756.836
1623120417.794,-741.211,-33.691,-52.246,-795.898
1623120417.798,740.723,-8.789,34.668,562.012
1623120417.802,882.324,-16.113,25.391,877.930
1623120417.806,-526.855,-42.480,-65.918,-422.363
1623120417.809,-1000.000,-45.410,-77.148,-1000.000
1623120417.813,243.652,-27.832,-0.488,198.730
1623120417.817,-867.188,-19.043,37.109,-945.312
1623120417.821,-85.938,-43.457,-30.273,-54.688
1623120417.825,-1000.000,-56.152,-79.590,-1000.000
1623120417.827,-70.801,-35.645,-12.207,-146.484
1623120417.831,-827.637,-18.555,39.551,-983.887
1623120417.835,273.926,-26.855,-18.066,368.164
1623120417.839,-1000.000,-45.410,-91.797,-1000.000
1623120417.843,-456.543,-39.551,-38.574,-543.945
1623120417.847,-940.430,-18.555,48.340,885.254
1623120417.851,607.910,-26.855,8.301,671.387
1623120417.854,-892.578,-46.387,-84.961,-707.031
1623120417.858,-821.289,-41.504,-66.895,-846.680
1623120417.862,630.859,-17.090,31.250,484.863
1623120417.866,955.566,-13.672,20.996,914.551
1623120417.870,-410.156,-41.504,-75.684,-358.887
1623120417.871,-1000.000,-47.363,-88.379,-1000.000
1623120417.875,149.902,-21.973,-0.488,105.469
1623120417.879,-840.820,-13.184,35.645,-941.895
1623120417.883,20.508,-30.762,-49.805,39.551
1623120417.887,-1000.000,-44.434,-89.355,-1000.000
1623120417.891,-219.727,-24.902,-13.672,-316.406
1623120417.895,-825.195,-11.230,37.598,983.887
1623120417.898,341.309,-33.203,-23.926,449.707
1623120417.902,-1000.000,-51.270,-94.238,-932.129
1623120417.906,-541.016,-33.203,-35.645,-655.762
1623120417.910,964.355,-10.742,42.969,734.863
1623120417.914,693.359,-16.113,9.766,741.699
1623120417.916,-792.480,-34.668,-70.801,-629.883
1623120417.920,-898.926,-26.855,-61.523,-889.160
1623120417.924,522.461,-7.812,19.531,417.480
1623120417.928,-984.863,-5.371,32.227,962.891
1623120417.932,-303.223,-23.438,-49.316,-257.812
1623120417.936,-1000.000,-37.109,-75.684,-1000.000
1623120417.940,59.570,-23.438,-4.395,14.648
1623120417.943,-820.312,-14.160,25.391,-935.547
1623120417.947,94.727,-28.320,-32.715,146.973
1623120417.951,-1000.000,-43.457,-79.590,-1000.000
1623120417.955,-283.203,-28.320,-25.391,-390.137
1623120417.959,-846.680,-4.883,43.457,951.172
1623120417.961,416.504,-18.555,-16.602,521.973
1623120417.965,-1000.000,-50.293,-102.051,-876.465
1623120417.969,-613.770,-40.527,-53.711,-703.613
1623120417.973,888.672,-11.719,31.250,678.223
1623120417.977,767.090,-14.648,5.859,797.363
1623120417.981,-694.824,-39.551,-88.379,-550.781
1623120417.985,-968.262,-44.434,-87.891,-936.035
1623120417.988,413.086,-16.602,9.766,337.402
1623120417.992,-934.570,-8.301,27.832,989.746
1623120417.996,-203.125,-34.180,-58.594,-195.312
1623120418.000,-1000.000,-40.527,-75.195,-1000.000
1623120418.004,-26.367,-20.996,7.812,-80.078
1623120418.006,-810.547,-11.230,55.176,-945.312
1623120418.010,162.109,-23.438,-18.066,226.074
1623120418.014,-1000.000,-38.574,-86.426,-1000.000
1623120418.018,-358.887,-22.949,-23.438,-468.262
1623120418.022,-884.277,-0.488,55.176,896.973
1623120418.026,484.375,-12.695,-2.441,596.191
1623120418.030,-1000.000,-33.203,-92.773,-802.246
1623120418.033,-695.312,-17.090,-48.828,-753.906
1623120418.037,793.945,4.883,32.715,618.164
1623120418.041,839.844,-4.883,7.324,848.633
1623120418.045,-594.727,-33.691,-75.195,-470.703
1623120418.049,-1000.000,-38.574,-71.777,-983.398
1623120418.067,309.082,-15.137,9.766,246.094
1623120418.071,-890.625,-3.906,29.785,-969.238
1623120418.075,-108.887,-24.902,-46.387,-90.820
1623120418.079,-1000.000,-40.527,-83.496,-1000.000
1623120418.083,-106.934,-18.555,-14.160,-162.109
1623120418.087,-809.082,-4.395,36.133,-955.566
1623120418.091,238.770,-25.391,-26.855,318.359
1623120418.094,-1000.000,-41.504,-91.797,-1000.000
1623120418.098,-427.734,-28.320,-36.133,-542.480
1623120418.102,-933.594,-5.371,38.086,843.262
1623120418.106,571.289,-11.230,-0.488,639.160
1623120418.110,-938.965,-43.457,-85.449,-753.906
1623120418.111,-763.672,-38.086,-62.012,-811.523
1623120418.115,707.520,0.977,28.320,537.598
1623120418.119,925.293,5.859,22.949,897.949
1623120418.123,-459.961,-21.973,-65.918,-384.277
1623120418.127,-1000.000,-37.109,-85.449,-1000.000
1623120418.131,205.566,-17.090,-1.953,155.762
1623120418.135,-856.934,-8.301,24.414,-951.172
1623120418.138,-26.855,-39.062,-58.594,-0.488
1623120418.142,-1000.000,-56.641,-104.492,-1000.000
1623120418.146,-183.594,-31.738,-33.203,-249.512
1623120418.150,-819.336,-7.324,37.598,-987.305
1623120418.154,311.523,-22.949,-23.926,408.203
1623120418.156,-1000.000,-41.992,-97.168,-957.031
1623120418.160,-488.770,-32.715,-39.062,-600.586
1623120418.164,-985.840,-16.113,41.016,788.574
1623120418.168,649.414,-26.855,-4.395,714.355
1623120418.172,-845.703,-51.270,-94.238,-662.598
1623120418.176,-845.703,-43.457,-78.125,-858.887
1623120418.180,600.098,-15.137,16.113,467.773
1623120418.183,981.934,-16.602,25.391,937.500
1623120418.187,-362.793,-40.039,-78.125,-312.500
1623120418.191,-1000.000,-39.062,-88.867,-1000.000
1623120418.195,108.398,-18.555,10.254,77.637
1623120418.199,-830.566,-13.184,28.320,-935.547
1623120418.201,53.223,-32.227,-45.410,92.285
1623120418.205,-1000.000,-43.457,-79.590,-1000.000
1623120418.209,-254.883,-19.531,-17.090,-336.426
1623120418.213,-817.871,-1.953,38.574,991.211
1623120418.217,333.984,-19.043,-11.719,447.266
1623120418.221,-1000.000,-41.016,-77.637,-816.406
1623120418.225,-359.375,-35.156,-39.062,-504.395
1623120418.228,915.039,-14.648,29.785,698.730
1623120418.232,716.309,-22.461,12.695,757.324
1623120418.236,-748.535,-45.898,-71.777,-596.191
1623120418.240,-927.246,-46.875,-69.336,-909.668
1623120418.244,479.980,-25.391,11.719,383.301
1623120418.246,-971.191,-24.414,13.184,974.121
1623120418.250,-270.996,-40.039,-64.453,-230.469
1623120418.254,-1000.000,-38.086,-84.473,-1000.000
1623120418.258,13.672,-27.832,-13.672,-27.832
1623120418.262,-816.895,-18.066,34.180,-939.941
1623120418.266,121.582,-36.133,-36.133,186.523
1623120418.270,-1000.000,-53.711,-97.656,-1000.000
1623120418.273,-322.754,-32.227,-37.109,-417.969
1623120418.277,-865.723,-2.441,41.504,935.547
1623120418.281,447.266,-5.859,9.277,548.340
1623120418.285,-1000.000,-32.715,-78.613,-841.797
1623120418.289,-646.973,-35.156,-52.734,-728.516
1623120418.291,850.098,-7.812,38.086,648.438
1623120418.295,796.875,-11.719,21.484,815.918
1623120418.299,-653.809,-40.527,-72.754,-520.508
1623120418.303,-991.699,-36.621,-71.777,-960.449
1623120418.307,365.723,-8.301,17.090,274.902
1623120418.311,-928.711,-3.906,26.367,995.605
1623120418.315,-169.434,-33.691,-63.965,-138.184
1623120418.318,-1000.000,-48.340,-93.262,-1000.000
1623120418.322,-65.918,-29.785,-4.883,-117.676
1623120418.326,-809.570,-14.648,52.246,-942.871
1623120418.330,200.195,-29.785,-16.113,277.832
1623120418.334,-1000.000,-51.758,-84.473,-1000.000
1623120418.337,-383.789,-39.551,-26.855,-489.746
1623120418.341,-901.367,-12.207,44.922,888.672
1623120418.345,525.879,-21.973,1.465,617.676
1623120418.349,-983.398,-49.316,-80.078,-774.414
1623120418.353,-725.098,-43.457,-54.199,-782.715
1623120418.357,759.766,-18.066,24.414,575.195
1623120418.361,866.699,-17.090,4.883,863.281
1623120418.364,-548.340,-37.598,-77.148,-439.941
1623120418.368,-1000.000,-46.387,-78.613,-1000.000
1623120418.372,261.230,-24.902,7.324,202.637
1623120418.376,-878.906,-12.695,31.250,-965.332
1623120418.380,-78.125,-31.250,-44.922,-51.758
1623120418.397,-1000.000,-34.180,-70.801,-1000.000
1623120418.401,-141.113,-14.160,-1.953,-203.613
1623120418.405,-812.500,-0.488,30.273,-972.656
1623120418.409,265.137,-13.184,-34.180,352.051
1623120418.413,-1000.000,-31.250,-89.844,-987.793
1623120418.417,-457.520,-27.832,-47.852,-572.754
1623120418.421,-958.008,-14.160,25.391,808.105
1623120418.424,599.121,-12.695,5.859,674.805
1623120418.428,-905.273,-33.691,-74.219,-710.449
1623120418.432,-801.270,-30.273,-55.176,-833.008
1623120418.436,658.691,-1.465,31.738,506.836
1623120418.440,943.359,1.465,29.785,911.133
1623120418.442,-430.176,-32.715,-67.383,-360.352
1623120418.446,-1000.000,-44.922,-72.266,-1000.000
1623120418.450,168.945,-21.973,18.066,130.371
1623120418.454,-847.168,-11.230,39.062,-944.336
1623120418.458,4.395,-32.715,-40.527,39.062
1623120418.462,-1000.000,-53.711,-92.773,-1000.000
1623120418.466,-212.891,-31.738,-21.973,-295.898
1623120418.469,-825.195,-8.789,53.711,991.699
1623120418.473,331.055,-21.973,5.371,437.988
1623120418.477,-1000.000,-43.945,-87.891,-938.965
1623120418.481,-531.250,-36.621,-44.922,-641.113
1623120418.485,973.633,-14.648,54.688,745.605
1623120418.486,679.199,-26.367,15.137,728.027
1623120418.490,-810.547,-48.828,-78.125,-640.625
1623120418.494,-879.883,-39.062,-57.617,-886.230
1623120418.498,547.852,-18.066,28.809,418.457
1623120418.502,-996.094,-20.996,34.180,956.055
1623120418.506,-320.312,-47.852,-60.547,-267.578
1623120418.510,-1000.000,-45.898,-81.055,-1000.000
1623120418.513,65.918,-16.602,6.348,8.301
1623120418.517,-825.195,-9.766,35.156,-942.871
1623120418.521,79.590,-26.367,-40.039,131.836
1623120418.525,-1000.000,-34.668,-83.984,-1000.000
1623120418.529,-281.250,-25.391,-23.926,-385.742
1623120418.531,-846.680,-12.695,33.203,952.148
1623120418.535,403.320,-20.996,-13.672,501.953
1623120418.539,-1000.000,-40.527,-95.703,-888.672
1623120418.543,-604.980,-31.738,-51.758,-697.266
1623120418.547,898.438,-6.836,31.738,685.547
1623120418.551,751.953,-18.066,-2.441,774.902
1623120418.555,-717.773,-44.434,-82.031,-580.078
1623120418.558,-953.613,-39.551,-73.730,-931.641
1623120418.562,436.523,-14.648,3.418,344.727
1623120418.566,-947.754,-13.184,15.137,980.957
1623120418.570,-227.539,-34.180,-61.035,-203.125
1623120418.574,-1000.000,-37.598,-87.402,-1000.000
1623120418.577,-13.184,-16.602,-6.836,-69.824
1623120418.581,-812.500,-4.883,40.527,-954.102
1623120418.585,152.832,-28.320,-38.086,209.473
1623120418.589,-1000.000,-46.875,-101.562,-1000.000
1623120418.593,-347.656,-28.809,-32.227,-452.637
1623120418.597,-879.883,-10.254,39.062,921.875
1623120418.601,481.445,-18.066,-2.930,562.012
1623120418.604,-1000.000,-39.551,-90.332,-830.078
1623120418.608,-680.664,-32.715,-66.406,-751.465
1623120418.612,813.477,-0.977,40.527,616.699
1623120418.616,829.102,-7.812,23.438,835.938
1623120418.620,-608.398,-37.598,-74.219,-486.328
1623120418.622,-1000.000,-36.133,-77.637,-979.492
1623120418.626,327.637,-4.883,12.207,254.883
1623120418.630,-896.973,7.324,39.062,-981.445
1623120418.634,-124.023,-20.996,-45.898,-110.840
1623120418.638,-1000.000,-33.203,-89.355,-1000.000
1623120418.642,-95.215,-16.113,-15.625,-162.598
1623120418.646,-808.594,-6.348,43.457,-967.285
1623120418.649,227.051,-27.832,-30.273,311.523
1623120418.653,-1000.000,-45.898,-103.027,-1000.000
1623120418.657,-414.551,-25.391,-34.668,-538.086
1623120418.661,-922.852,-8.789,41.016,845.703
1623120418.665,550.293,-19.531,-5.371,633.789
1623120418.667,-955.566,-36.621,-83.984,-756.836
1623120418.671,-762.207,-28.809,-54.688,-804.688
1623120418.675,710.938,-12.695,24.902,547.852
1623120418.679,899.414,-15.137,10.742,876.953
1623120418.683,-498.535,-37.109,-80.566,-418.945
1623120418.687,-1000.000,-42.969,-91.797,-1000.000
1623120418.691,218.262,-17.578,0.488,159.180
1623120418.694,-865.723,-12.695,36.133,-961.426
1623120418.698,-46.875,-32.227,-37.109,-30.273
1623120418.702,-1000.000,-42.480,-88.867,-1000.000
1623120418.706,-175.293,-23.438,-18.555,-249.512
1623120418.710,-818.848,-1.953,39.062,-993.652
1623120418.711,295.898,-21.484,-33.203,390.625
1623120418.715,-1000.000,-44.922,-98.145,-971.191
1623120418.719,-495.117,-30.273,-47.363,-614.258
1623120418.723,-972.168,-6.836,25.391,797.363
1623120418.727,592.773,-18.555,-13.184,643.066
1623120418.731,-932.129,-49.805,-110.840,-770.508
1623120418.735,-834.473,-43.457,-93.750,-843.262
1623120418.738,603.027,-8.789,10.742,476.562
1623120418.742,970.215,0.000,23.926,917.480
1623120418.746,-377.441,-22.949,-78.125,-333.496
1623120418.750,-1000.000,-29.297,-93.750,-1000.000
1623120418.754,125.000,-11.230,-3.418,63.965
1623120418.756,-836.914,-7.812,30.273,-947.754
1623120418.760,35.645,-32.227,-46.875,82.031
1623120418.764,-1000.000,-40.039,-100.586,-1000.000
1623120418.768,-236.816,-18.555,-23.438,-333.008
1623120418.772,-832.031,-5.371,39.551,974.609
1623120418.776,364.258,-28.320,-24.902,467.773
1623120418.780,-1000.000,-49.805,-99.609,-909.668
1623120418.783,-561.035,-29.297,-53.223,-669.434
1623120418.787,944.824,-6.348,30.762,712.402
1623120418.791,708.984,-14.648,7.324,759.277
1623120418.795,-770.508,-34.180,-72.754,-603.516
1623120418.799,-912.598,-35.156,-59.082,-901.367
1623120418.816,496.582,-17.578,24.414,395.996
1623120418.820,-973.633,-10.254,35.645,971.191
1623120418.824,-276.855,-36.133,-43.945,-240.723
1623120418.828,-1000.000,-49.316,-79.102,-1000.000
1623120418.832,35.645,-34.180,-8.301,-7.324
1623120418.836,-816.406,-28.809,35.156,-937.500
1623120418.840,115.723,-44.434,-30.762,181.152
1623120418.843,-1000.000,-47.363,-81.543,-1000.000
1623120418.847,-299.316,-20.996,-16.602,-402.344
1623120418.851,-852.539,0.000,38.574,947.754
1623120418.855,432.617,-13.184,-14.648,542.969
1623120418.859,-1000.000,-32.227,-84.961,-848.145
1623120418.862,-632.812,-24.414,-50.293,-723.145
1623120418.866,864.746,-10.254,34.668,655.762
1623120418.870,786.133,-14.648,18.555,807.129
1623120418.874,-666.504,-44.434,-78.125,-534.668
1623120418.878,-985.840,-52.246,-85.938,-951.172
1623120418.882,382.812,-25.391,3.906,306.641
1623120418.886,-926.758,-11.719,30.762,-999.512
1623120418.889,-182.617,-31.738,-47.852,-164.062
1623120418.893,-1000.000,-42.969,-90.332,-1000.000
1623120418.897,-55.176,-20.508,-14.160,-103.027
1623120418.901,-809.570,0.000,42.969,-947.754
1623120418.905,187.988,-22.949,-33.691,269.531
1623120418.907,-1000.000,-54.688,-107.422,-1000.000
1623120418.911,-372.559,-32.227,-42.480,-492.188
1623120418.915,-895.996,-7.812,40.039,875.977
1623120418.919,515.625,-18.555,-7.812,608.887
1623120418.923,-993.652,-37.598,-91.797,-783.691
1623120418.927,-712.891,-35.645,-57.129,-775.391
1623120418.931,773.926,-8.789,34.668,587.402
1623120418.934,859.863,-9.277,18.555,851.562
1623120418.938,-559.570,-42.969,-89.844,-456.543
1623120418.942,-1000.000,-47.363,-90.332,-999.023
1623120418.946,280.762,-20.508,9.766,206.055
1623120418.950,-884.277,-18.555,30.762,-966.309
1623120418.952,-93.262,-40.527,-45.898,-58.594
1623120418.956,-1000.000,-49.316,-87.402,-1000.000
1623120418.960,-126.465,-28.320,-14.648,-194.336
1623120418.964,-811.523,-11.719,41.504,-970.215
1623120418.968,248.535,-25.879,-28.320,344.727
1623120418.972,-1000.000,-45.898,-96.680,-1000.000
1623120418.976,-441.406,-33.691,-36.621,-562.988
1623120418.979,-946.777,-15.625,33.203,824.219
1623120418.983,592.285,-20.996,-5.859,668.945
1623120418.987,-913.086,-33.691,-83.984,-718.750
1623120418.991,-789.062,-38.574,-71.289,-830.078
1623120418.995,677.734,-18.066,17.090,510.254
1623120418.997,932.129,-12.695,10.742,902.832
1623120419.001,-443.848,-34.180,-72.754,-366.211
1623120419.005,-1000.000,-37.598,-82.031,-1000.000
1623120419.009,198.242,-13.184,4.395,147.461
1623120419.013,-907.227,-4.395,34.668,-989.746
1623120419.017,-96.680,-36.133,-61.523,-48.340
1623120419.021,-1000.000,-50.781,-105.469,-1000.000
1623120419.024,-199.707,-28.809,-32.227,-270.508
1623120419.028,-825.195,-10.742,24.902,-992.676
1623120419.032,317.383,-25.879,-22.461,415.039
1623120419.036,-1000.000,-43.457,-90.332,-955.566
1623120419.040,-517.090,-29.785,-44.922,-625.977
1623120419.042,988.281,-5.371,39.062,759.277
1623120419.046,661.621,-18.066,7.324,723.633
1623120419.050,-832.031,-49.316,-87.891,-648.438
1623120419.054,-863.770,-40.527,-70.312,-868.652
1623120419.058,568.359,-14.648,23.926,424.805
1623120419.062,999.023,-15.625,25.391,922.852
1623120419.066,-332.031,-40.039,-65.918,-289.551
1623120419.069,-1000.000,-46.875,-85.938,-1000.000
1623120419.073,89.844,-13.672,13.672,50.781
1623120419.077,-826.660,-3.418,45.898,-940.430
1623120419.081,71.289,-26.367,-35.645,116.211
1623120419.085,-1000.000,-40.039,-82.031,-1000.000
1623120419.087,-267.578,-26.367,-16.602,-365.234
1623120419.091,-841.309,-6.836,41.992,963.379
1623120419.095,389.648,-23.926,-20.508,499.023
1623120419.099,-1000.000,-45.410,-90.332,-888.672
1623120419.103,-590.820,-31.738,-48.340,-685.547
1623120419.107,912.598,-9.766,27.832,692.383
1623120419.111,738.770,-18.066,0.488,787.109
1623120419.114,-733.887,-40.527,-73.242,-562.500
1623120419.118,-937.500,-32.227,-46.875,-919.922
1623120419.122,459.473,-8.301,26.367,365.234
1623120419.126,-955.078,-10.742,25.879,976.562
1623120419.130,-239.258,-32.227,-58.105,-211.914
1623120419.132,-1000.000,-41.016,-84.473,-1000.000
1623120419.136,-3.418,-20.020,0.977,-40.039
1623120419.140,-805.664,-6.348,41.504,-931.641
1623120419.144,128.418,-27.832,-29.297,197.266
1623120419.148,-1000.000,-44.434,-81.543,-1000.000
1623120419.152,-250.488,-30.273,-24.902,-375.977
1623120419.156,-882.812,-7.324,44.922,912.598
1623120419.159,470.215,-13.184,8.789,565.430
1623120419.163,-1000.000,-34.180,-77.637,-827.637
1623120419.167,-670.898,-28.809,-56.152,-742.676
1623120419.171,823.730,-5.859,25.391,630.371
1623120419.175,816.895,-10.254,11.230,826.172
1623120419.191,-627.441,-42.969,-80.078,-501.465
1623120419.195,-1000.000,-39.062,-73.242,-970.703
1623120419.199,351.074,-19.043,14.648,265.137
1623120419.203,-906.738,-14.160,33.691,-984.375
1623120419.207,-142.090,-29.297,-46.875,-121.582
1623120419.211,-1000.000,-40.527,-87.891,-1000.000
1623120419.215,-77.637,-19.043,-6.348,-132.324
1623120419.218,-807.617,-8.301,43.457,-958.008
1623120419.222,213.867,-31.738,-36.133,291.992
1623120419.226,-1000.000,-46.387,-104.492,-1000.000
1623120419.230,-406.250,-26.855,-38.086,-520.508
1623120419.234,-916.992,-4.395,38.574,855.469
1623120419.252,536.133,-16.602,-12.207,635.254
1623120419.256,-973.145,-41.504,-96.680,-753.418
1623120419.260,-743.652,-34.180,-67.871,-803.223
1623120419.264,731.934,-10.742,20.020,552.246
1623120419.268,889.160,-14.648,6.836,865.723
1623120419.272,-516.113,-36.133,-84.961,-416.992
1623120419.276,-1000.000,-37.109,-83.984,-983.398
1623120419.279,250.977,-13.184,5.859,191.406
1623120419.283,-871.094,-13.184,19.043,-961.426
1623120419.287,-61.035,-41.504,-52.734,-36.133
1623120419.291,-1000.000,-51.270,-76.172,-1000.000
1623120419.295,-160.156,-31.738,-6.836,-241.211
1623120419.282,-815.918,-16.602,33.203,-988.770
1623120419.286,278.320,-36.621,-31.738,361.816
1623120419.290,-1000.000,-49.805,-90.332,-1000.000
1623120419.294,-469.727,-25.391,-44.922,-590.820
1623120419.298,-969.238,0.488,30.762,795.410
1623120419.302,618.164,-12.695,-2.441,684.082
1623120419.306,-880.371,-32.715,-79.590,-694.824
1623120419.309,-824.707,-31.250,-64.941,-852.051
1623120419.313,625.977,-9.766,20.508,475.586
1623120419.317,960.449,-4.395,22.949,912.598
1623120419.321,-399.414,-26.367,-65.918,-353.027
1623120419.325,-1000.000,-38.574,-83.496,-1000.000
1623120419.327,142.578,-24.414,-5.859,105.469
1623120419.331,-841.797,-6.836,40.039,-944.336
1623120419.335,20.996,-23.438,-33.691,58.105
1623120419.339,-1000.000,-49.316,-97.168,-1000.000
1623120419.343,-227.051,-32.227,-33.203,-311.523
1623120419.347,-830.566,-9.766,33.203,989.746
1623120419.351,350.098,-24.902,-22.461,469.238
1623120419.354,-1000.000,-43.457,-96.680,-948.730
1623120419.358,-522.461,-33.203,-52.734,-583.008
1623120419.362,-993.164,-14.648,31.738,865.723
1623120419.366,694.824,-16.602,7.812,739.258
1623120419.370,-785.645,-34.668,-76.660,-619.141
1623120419.372,-896.973,-33.691,-65.918,-889.648
1623120419.376,521.973,-9.766,29.297,407.715
1623120419.380,-987.305,-9.277,29.785,962.891
1623120419.384,-303.711,-29.297,-59.570,-278.320
1623120419.388,-1000.000,-36.621,-78.125,-1000.000
1623120419.392,53.223,-14.648,-6.348,80.566
1623120419.396,-820.801,1.953,34.180,-952.637
1623120419.399,100.098,-23.926,-37.598,157.715
1623120419.403,-1000.000,-44.922,-92.285,-1000.000
1623120419.407,-293.945,-17.090,-22.461,-395.508
1623120419.411,-851.074,2.930,41.504,943.848
1623120419.415,416.504,-18.555,-16.113,525.391
1623120419.416,-1000.000,-37.109,-97.656,-863.770
1623120419.420,-614.746,-20.996,-53.223,-712.402
1623120419.424,883.789,1.953,31.250,667.969
1623120419.428,776.855,-8.789,4.395,796.875
1623120419.432,-682.129,-33.203,-77.148,-549.316
1623120419.436,-967.773,-34.668,-76.172,-947.754
1623120419.440,414.062,-15.625,6.836,318.359
1623120419.443,-932.617,-11.719,31.250,995.605
1623120419.447,-198.242,-28.809,-41.504,-177.246
1623120419.451,-1000.000,-41.504,-84.961,-1000.000
1623120419.455,-33.203,-22.461,-13.672,-80.566
1623120419.459,-810.547,-2.441,38.086,-947.266
1623120419.461,168.945,-20.508,-34.668,236.328
1623120419.465,-1000.000,-44.434,-93.262,-1000.000
1623120419.469,-362.305,-31.738,-36.621,-478.027
1623120419.473,-889.160,-7.324,36.133,885.742
1623120419.477,496.582,-10.742,6.836,592.285
1623120419.481,-1000.000,-34.668,-80.566,-801.758
1623120419.485,-700.195,-34.180,-60.547,-758.789
1623120419.488,787.598,-11.230,23.926,606.934
1623120419.492,840.820,-14.160,16.602,845.703
1623120419.496,-587.891,-37.598,-72.266,-468.750
1623120419.500,-1000.000,-37.598,-65.918,-979.980
1623120419.504,302.246,-15.625,18.555,242.676
1623120419.506,-894.043,-10.254,34.668,-971.191
1623120419.510,-113.281,-34.180,-51.758,-81.543
1623120419.514,-1000.000,-45.410,-89.355,-1000.000
1623120419.518,-115.234,-24.902,-6.836,-180.176
1623120419.522,-811.035,-13.184,37.598,-970.215
1623120419.526,239.746,-33.203,-35.156,328.125
1623120419.530,-1000.000,-49.316,-99.609,-1000.000
1623120419.533,-427.246,-24.414,-30.273,-550.293
1623120419.537,-934.570,0.000,45.898,823.730
1623120419.541,572.266,-14.648,-1.465,655.273
1623120419.545,-934.082,-36.621,-83.496,-729.492
1623120419.549,-773.926,-27.832,-53.223,-816.406
1623120419.552,699.219,-6.348,32.715,535.156
1623120419.556,908.203,-12.207,16.602,887.695
1623120419.560,-483.398,-42.969,-67.871,-400.391
1623120419.564,-1000.000,-39.551,-68.359,-1000.000
1623120419.568,198.730,-15.137,15.137,140.137
1623120419.572,-859.863,-15.137,27.344,-962.402
1623120419.576,-31.738,-33.203,-52.734,-0.977
1623120419.579,-1000.000,-40.527,-90.332,-1000.000
1623120419.583,-189.453,-22.949,-22.461,-261.719
1623120419.587,-820.801,-7.324,37.598,-996.582
1623120419.591,304.688,-23.438,-18.066,391.113
1623120419.595,-1000.000,-40.039,-86.426,-968.750
1623120419.612,-498.047,-23.926,-40.039,-613.770
1623120419.616,-996.094,-5.859,34.668,770.996
1623120419.620,648.926,-17.090,4.395,711.914
1623120419.624,-844.727,-42.480,-79.102,-657.715
1623120419.628,-853.516,-42.480,-66.895,-870.605
1623120419.632,585.938,-16.602,14.648,448.242
1623120419.636,980.469,-11.719,24.414,926.758
1623120419.639,-362.793,-39.062,-55.176,-322.266
1623120419.643,-1000.000,-49.805,-86.426,-1000.000
1623120419.647,104.492,-24.414,-9.277,58.105
1623120419.651,-829.590,-8.789,39.062,-945.801
1623120419.655,59.082,-34.668,-33.691,90.820
1623120419.656,-1000.000,-44.434,-90.820,-1000.000
1623120419.660,-247.559,-19.531,-21.484,-346.191
1623120419.664,-834.473,-0.977,47.852,968.262
1623120419.668,382.812,-19.531,-14.648,477.539
1623120419.672,-1000.000,-40.039,-91.797,-905.273
1623120419.676,-572.754,-25.391,-47.852,-675.293
1623120419.680,932.617,-8.789,36.621,705.078
1623120419.683,727.051,-14.160,16.602,766.602
1623120419.687,-746.582,-35.645,-80.566,-587.402
1623120419.691,-928.223,-40.527,-71.289,-920.898
1623120419.695,477.051,-11.230,25.879,365.234
1623120419.699,-968.262,-10.742,27.832,963.867
1623120419.702,-266.602,-44.434,-61.523,-244.629
1623120419.706,-1000.000,-52.246,-79.590,-1000.000
1623120419.710,16.113,-26.367,-1.465,-20.020
1623120419.714,-816.406,-9.766,34.668,-946.777
1623120419.718,125.488,-30.273,-35.156,175.293
1623120419.722,-1000.000,-45.410,-91.797,-1000.000
1623120419.726,-319.824,-24.414,-19.043,-428.711
1623120419.729,-864.746,-4.883,49.316,925.781
1623120419.733,449.707,-17.578,-3.418,565.918
1623120419.737,-1000.000,-36.621,-69.336,-827.637
1623120419.741,-650.391,-26.855,-39.062,-727.051
1623120419.745,845.215,-6.348,34.668,646.973
1623120419.747,800.293,-16.113,5.371,817.383
1623120419.751,-649.414,-41.992,-82.031,-514.160
1623120419.755,-986.816,-37.598,-69.336,-957.520
1623120419.759,376.953,-18.555,16.113,295.410
1623120419.763,-915.039,-15.625,20.996,-989.258
1623120419.767,-157.227,-35.156,-65.430,-134.277
1623120419.771,-1000.000,-43.945,-89.355,-1000.000
1623120419.774,-65.918,-23.926,-13.672,-114.258
1623120419.778,-810.059,-6.836,37.109,-951.660
1623120419.782,195.312,-23.926,-32.227,273.438
1623120419.786,-1000.000,-47.852,-100.586,-1000.000
1623120419.790,-384.766,-33.203,-39.062,-504.395
1623120419.791,-904.297,-9.766,33.691,862.793
1623120419.795,530.273,-18.555,-7.324,615.723
1623120419.799,-981.445,-35.645,-92.773,-772.949
1623120419.803,-718.262,-21.973,-64.941,-776.855
1623120419.807,765.625,-1.465,28.320,583.984
1623120419.811,876.953,-8.789,6.348,864.258
1623120419.815,-532.715,-36.133,-86.914,-438.965
1623120419.818,-1000.000,-41.016,-90.332,-1000.000
1623120419.822,267.090,-14.648,2.441,198.242
1623120419.826,-876.465,-9.277,30.273,-975.098
1623120419.830,-74.219,-34.668,-59.082,-59.570
1623120419.834,-1000.000,-41.016,-100.586,-1000.000
1623120419.836,-140.137,-18.555,-21.484,-218.750
1623120419.840,-813.477,-1.465,40.039,-991.211
1623120419.844,263.184,-18.555,-24.414,353.027
1623120419.848,-1000.000,-44.434,-101.562,-1000.000
1623120419.852,-448.242,-37.109,-45.410,-551.270
1623120419.856,-942.383,-14.160,39.551,841.797
1623120419.860,594.238,-19.043,-7.812,679.199
1623120419.863,-906.738,-43.945,-91.309,-699.219
1623120419.867,-805.176,-39.062,-50.781,-831.055
1623120419.871,650.391,-15.137,35.156,507.324
1623120419.875,940.430,-17.090,27.344,909.180
1623120419.879,-431.152,-37.109,-60.059,-356.445
1623120419.881,-1000.000,-39.551,-73.730,-1000.000
1623120419.885,166.504,-16.602,10.742,111.816
1623120419.889,-846.680,-9.766,35.156,-950.195
1623120419.893,5.859,-40.527,-45.898,36.621
1623120419.897,-1000.000,-52.734,-88.379,-1000.000
1623120419.901,-210.449,-32.715,-22.461,-300.293
1623120419.905,-825.195,-18.555,37.109,991.699
1623120419.908,334.961,-29.785,-6.836,435.547
1623120419.912,-1000.000,-44.434,-77.637,-938.477
1623120419.916,-530.273,-28.320,-41.016,-639.160
1623120419.920,973.145,0.488,38.574,757.812
1623120419.924,684.082,1.953,12.695,711.914
1623120419.926,-801.270,-27.832,-82.520,-671.387
1623120419.930,-885.742,-31.250,-74.219,-877.441
1623120419.934,543.945,-0.488,24.902,427.246
1623120419.938,997.070,0.000,29.785,949.219
1623120419.942,-332.520,-36.133,-67.871,-279.785
1623120419.946,-1000.000,-46.875,-91.309,-1000.000
1623120419.950,73.730,-15.625,-0.488,33.203
1623120419.953,-824.707,-3.418,39.062,-944.336
1623120419.957,83.008,-28.809,-44.434,121.582
1623120419.961,-1000.000,-40.527,-103.516,-1000.000
1623120419.965,-279.297,-17.578,-30.273,-389.160
1623120419.969,-845.703,-3.906,44.434,943.359
1623120419.986,400.391,-20.508,-12.695,506.348
1623120419.990,-1000.000,-46.387,-97.656,-885.254
1623120419.994,-605.469,-39.551,-57.617,-690.918
1623120419.998,895.020,-11.719,33.691,690.430
1623120420.002,752.441,-17.090,12.207,783.691
1623120420.006,-712.891,-46.387,-83.496,-563.477
1623120420.010,-958.008,-46.387,-67.871,-934.082
1623120420.013,429.199,-17.578,33.691,330.566
1623120420.017,-945.312,-12.207,37.598,990.234
1623120420.021,-224.609,-36.621,-51.758,-187.500
1623120420.025,-1000.000,-38.086,-67.871,-1000.000
1623120420.029,-12.695,-15.625,4.883,-60.547
1623120420.031,-812.500,-2.441,37.109,-951.660
1623120420.035,152.832,-18.066,-30.762,213.379
1623120420.039,-1000.000,-39.551,-85.449,-1000.000
1623120420.043,-351.074,-28.320,-34.668,-455.078
1623120420.047,-882.324,-10.742,29.297,897.461
1623120420.051,480.957,-20.020,-10.254,578.125
1623120420.055,-1000.000,-36.133,-81.055,-812.988
1623120420.058,-681.152,-28.809,-46.387,-751.953
1623120420.062,812.012,-11.230,24.414,618.164
1623120420.066,824.219,-16.602,8.789,831.055
1623120420.070,-615.723,-36.133,-71.289,-496.094
1623120420.074,-1000.000,-39.062,-86.914,-967.285
1623120420.076,332.520,-17.090,5.859,270.996
1623120420.080,-908.691,-18.066,42.969,-986.328
1623120420.084,-140.625,-40.039,-43.457,-116.211
1623120420.088,-1000.000,-45.410,-95.703,-1000.000
1623120420.092,-97.656,-28.320,-29.785,-167.969
1623120420.096,-810.547,-9.766,24.902,-975.098
1623120420.100,220.215,-21.973,-38.574,307.129
1623120420.103,-1000.000,-41.504,-102.539,-1000.000
1623120420.107,-419.434,-26.855,-41.016,-530.273
1623120420.111,-929.199,0.000,55.176,849.609
1623120420.115,554.199,-13.184,15.625,637.207
1623120420.119,-955.078,-38.086,-83.984,-751.465
1623120420.121,-755.859,-30.762,-61.035,-799.805
1623120420.125,716.309,-1.953,36.133,553.223
1623120420.129,905.273,-2.441,31.738,881.836
1623120420.133,-490.234,-31.738,-67.871,-407.715
1623120420.137,-1000.000,-36.133,-74.707,-1000.000
1623120420.141,227.051,-10.742,13.672,166.016
1623120420.145,-865.723,-7.812,33.203,-959.473
1623120420.148,-44.922,-34.668,-52.246,-13.672
1623120420.152,-1000.000,-43.457,-93.262,-1000.000
1623120420.156,-174.316,-20.508,-13.672,-255.859
1623120420.160,-818.359,-9.766,36.621,999.023
1623120420.164,291.016,-29.785,-29.297,377.441
1623120420.166,-1000.000,-45.410,-90.332,-976.562
1623120420.170,-488.281,-29.785,-37.109,-602.051
1623120420.174,-986.328,-9.277,32.227,776.367
1623120420.178,627.930,-17.090,-4.395,693.359
1623120420.182,-868.652,-38.086,-86.914,-682.129
1623120420.186,-839.355,-34.180,-65.918,-853.516
1623120420.190,607.910,-13.184,20.020,472.168
1623120420.193,959.473,-16.602,20.020,921.875
1623120420.197,-396.484,-39.062,-54.199,-333.496
1623120420.201,-1000.000,-44.922,-70.801,-1000.000
1623120420.205,146.484,-23.438,14.160,106.445
1623120420.209,-895.020,-12.695,38.574,-988.281
1623120420.211,-55.664,-30.273,-51.270,2.441
1623120420.215,-1000.000,-52.734,-97.656,-1000.000
1623120420.219,-237.305,-31.738,-21.484,-327.637
1623120420.223,-835.449,-5.371,45.410,975.098
1623120420.227,365.723,-19.531,-14.160,468.262
1623120420.231,-1000.000,-44.922,-93.262,-910.645
1623120420.235,-559.570,-41.016,-56.152,-656.250
1623120420.238,944.336,-10.742,36.133,726.074
1623120420.242,710.938,-10.742,17.578,756.836
1623120420.246,-767.578,-35.645,-81.055,-601.562
1623120420.250,-910.156,-36.621,-71.289,-901.855
1623120420.254,501.953,-10.742,20.508,392.090
1623120420.256,-977.539,-5.859,23.926,960.449
1623120420.260,-284.668,-32.227,-62.500,-251.953
1623120420.264,-1000.000,-42.480,-82.031,-1000.000
1623120420.268,37.598,-16.602,3.418,-16.602
1623120420.272,-819.336,3.418,52.246,-948.242
1623120420.276,109.375,-19.531,-29.297,172.363
1623120420.280,-1000.000,-46.875,-95.703,-1000.000
1623120420.283,-306.641,-27.344,-22.461,-429.688
1623120420.287,-858.398,-0.488,44.434,920.898
1623120420.291,432.129,-16.602,-18.066,543.457
1623120420.295,-1000.000,-40.039,-96.680,-864.258
1623120420.299,-615.723,-30.273,-49.805,-687.988
1623120420.316,892.578,-10.254,35.645,699.707
1623120420.320,777.832,-15.625,13.672,805.176
1623120420.324,-673.340,-42.480,-72.266,-525.879
1623120420.328,-979.004,-42.480,-68.848,-945.312
1623120420.332,392.578,-14.648,19.531,313.477
1623120420.336,-931.641,-11.719,28.809,-998.047
1623120420.340,-193.359,-41.016,-58.594,-156.250
1623120420.343,-1000.000,-53.223,-83.984,-1000.000
1623120420.347,-46.875,-26.367,-0.977,-104.004
1623120420.351,-810.547,-5.859,41.504,-955.078
1623120420.355,181.641,-21.484,-23.438,249.023
1623120420.359,-1000.000,-40.527,-78.125,-1000.000
1623120420.361,-371.582,-21.484,-26.367,-494.629
1623120420.365,-894.531,2.441,38.086,867.676
1623120420.369,506.836,-9.277,1.465,596.191
1623120420.373,-1000.000,-31.250,-78.613,-791.016
1623120420.377,-707.520,-22.461,-50.781,-774.414
1623120420.381,777.344,3.906,32.715,588.379
1623120420.385,855.957,3.418,22.949,855.957
1623120420.388,-563.477,-24.902,-61.035,-454.102
1623120420.392,-1000.000,-34.668,-76.660,-989.258
1623120420.396,285.156,-11.719,7.324,218.750
1623120420.400,-887.207,5.859,43.945,-974.609
1623120420.404,-99.121,-12.695,-35.156,-81.055
1623120420.406,-1000.000,-26.367,-83.984,-1000.000
1623120420.410,-125.977,-6.836,-13.672,-187.500
1623120420.414,-783.691,4.883,57.129,-956.543
1623120420.418,176.758,-8.301,-2.930,270.508
1623120420.422,-1000.000,-21.973,-56.641,-888.672
1623120420.426,-112.793,-17.090,-0.488,-321.777
1623120420.430,-973.633,2.441,50.781,779.297
1623120420.433,553.711,-4.883,16.113,620.605
1623120420.437,-923.340,-42.969,-71.777,-755.859
1623120420.441,-812.500,-22.461,-31.738,-819.336
1623120420.445,649.414,12.695,81.543,527.832
1623120420.449,890.625,3.906,58.594,830.566
1623120420.452,-496.094,-12.207,-16.113,-443.848
1623120420.456,-1000.000,-9.766,-7.324,-1000.000
1623120420.460,139.160,15.625,62.012,17.578
1623120420.464,-887.695,35.645,80.566,885.254
1623120420.468,-74.219,24.902,4.395,-141.602
1623120420.472,-1000.000,13.184,-28.320,-1000.000
1623120420.476,-250.488,38.574,59.082,-409.180
1623120420.479,-843.750,60.059,105.469,790.527
1623120420.483,264.160,41.992,33.203,183.105
1623120420.487,-1000.000,22.949,-23.926,-1000.000
1623120420.491,-576.172,33.691,19.531,-714.844
1623120420.495,946.289,48.340,93.262,623.535
1623120420.496,569.824,43.945,49.805,506.836
1623120420.500,-951.172,29.785,-32.715,-841.309
1623120420.504,-912.109,35.645,-4.395,-931.641
1623120420.508,489.258,53.711,76.172,289.062
1623120420.512,948.242,50.293,68.848,791.016
1623120420.516,-402.344,23.438,-22.949,-411.621
1623120420.520,-1000.000,15.137,-37.109,-1000.000
1623120420.523,54.199,35.156,39.062,-70.312
1623120420.527,-843.750,43.457,73.242,928.223
1623120420.531,36.133,22.461,-1.465,-0.977
1623120420.535,-1000.000,-5.371,-75.684,-1000.000
1623120420.539,-287.109,9.277,-17.578,-402.344
1623120420.542,-847.168,30.273,62.500,910.645
1623120420.546,371.094,6.348,5.859,432.617
1623120420.550,-1000.000,-23.438,-89.844,-893.066
1623120420.554,-533.691,-23.926,-68.848,-653.809
1623120420.558,901.367,-8.301,28.809,667.969
1623120420.562,734.375,-18.066,-0.977,780.273
1623120420.566,-741.211,-45.898,-108.398,-574.707
1623120420.569,-926.270,-46.387,-65.918,-907.227
1623120420.573,471.680,-12.695,46.875,375.977
1623120420.577,-948.242,-13.184,23.438,992.676
1623120420.581,-233.887,-46.875,-94.727,-178.711
1623120420.585,-1000.000,-50.293,-104.004,-1000.000
1623120420.587,26.367,-33.203,-60.547,-8.301
1623120420.591,-807.617,-28.320,-19.043,-916.016
1623120420.595,161.133,-38.086,-57.617,254.883
1623120420.599,-1000.000,-60.547,-120.117,-1000.000
1623120420.603,-310.547,-52.246,-48.828,-358.887
1623120420.607,-862.305,-29.785,11.719,961.914
1623120420.611,487.305,-42.480,-37.109,615.234
1623120420.614,-1000.000,-63.965,-110.352,-769.531
1623120420.618,-634.277,-41.016,-80.566,-664.062
1623120420.622,861.816,-18.066,3.418,696.777
1623120420.626,834.473,-32.715,-31.738,859.863
1623120420.630,-598.633,-54.688,-122.070,-446.289
1623120420.631,-974.121,-48.828,-97.168,-891.113
1623120420.635,390.625,-25.391,-11.230,367.188
1623120420.639,-892.578,-22.949,2.930,-948.730
1623120420.643,-123.047,-42.969,-83.008,-47.363
1623120420.647,-1000.000,-52.734,-115.723,-1000.000
1623120420.651,-44.434,-36.621,-41.016,-20.508
1623120420.655,-801.758,-26.367,7.324,-911.621
1623120420.658,237.305,-36.133,-47.363,344.238
1623120420.662,-1000.000,-57.129,-115.234,-952.148
1623120420.666,-375.977,-47.852,-67.383,-429.688
1623120420.670,-900.391,-24.414,19.043,908.691
1623120420.674,565.430,-38.574,-18.555,658.691
1623120420.676,-939.941,-67.383,-113.281,-718.262
1623120420.680,-725.098,-61.035,-74.707,-758.301
1623120420.684,761.230,-30.273,27.344,595.703
1623120420.688,894.043,-31.738,11.230,890.625
1623120420.692,-492.188,-57.129,-87.402,-371.582
1623120420.696,-1000.000,-59.570,-100.586,-950.195
1623120420.700,261.230,-29.785,-9.766,233.887
1623120420.703,-865.234,-15.137,26.367,-944.336
1623120420.707,-49.805,-38.086,-55.176,-6.348
1623120420.711,-1000.000,-55.176,-107.422,-1000.000
1623120420.715,-143.066,-37.598,-30.762,-183.105
1623120420.719,-812.012,-22.949,23.926,-965.332
1623120420.736,287.109,-41.504,-47.363,393.555
1623120420.740,-1000.000,-57.129,-107.422,-964.844
1623120420.744,-456.543,-41.016,-45.410,-572.754
1623120420.748,-961.914,-17.578,39.551,815.430
1623120420.752,628.906,-31.250,-6.836,696.289
1623120420.756,-868.164,-58.105,-97.168,-676.758
1623120420.760,-807.617,-45.410,-61.035,-829.590
1623120420.763,649.902,-14.160,29.785,497.070
1623120420.767,956.055,-15.625,28.809,927.734
1623120420.771,-400.391,-43.457,-51.758,-313.477
1623120420.775,-1000.000,-35.645,-60.547,-1000.000
1623120420.779,144.043,-0.977,15.137,76.172
1623120420.781,-847.656,9.277,35.645,-968.262
1623120420.785,8.789,-1.953,-36.621,23.926
1623120420.789,-1000.000,-8.789,-73.730,-1000.000
1623120420.793,-233.887,12.207,-13.184,-347.168
1623120420.797,-831.543,37.109,43.945,949.707
1623120420.801,327.637,22.949,-9.766,395.508
1623120420.805,-1000.000,8.301,-71.777,-967.773
1623120420.808,-550.293,31.738,-20.996,-675.781
1623120420.812,951.172,42.480,49.316,704.102
1623120420.816,685.547,35.156,31.738,716.797
1623120420.820,-797.363,8.789,-70.312,-647.461
1623120420.824,-914.062,0.488,-75.684,-916.992
1623120420.827,501.953,41.504,28.320,364.746
1623120420.831,989.746,43.945,40.527,889.648
1623120420.835,-328.613,20.020,-44.434,-334.961
1623120420.839,-1000.000,15.137,-63.965,-1000.000
1623120420.843,16.602,47.363,13.184,-106.934
1623120420.847,-846.680,83.496,51.270,865.234
1623120420.851,37.109,79.590,-12.695,-66.406
1623120420.854,-1000.000,66.406,-63.965,-1000.000
1623120420.858,-355.469,83.008,0.488,-522.949
1623120420.862,-888.672,121.094,77.148,708.496
1623120420.866,365.723,109.375,31.738,271.973
1623120420.870,-1000.000,74.707,-53.223,-980.469
1623120420.871,-661.133,74.707,-22.949,-788.574
1623120420.875,824.707,92.285,57.617,500.977
1623120420.879,741.211,83.496,35.156,652.344
1623120420.883,-753.418,41.992,-61.035,-656.738
1623120420.887,-938.965,31.250,-57.129,-926.270
1623120420.891,450.684,48.828,28.809,309.082
1623120420.895,-953.613,42.969,34.180,914.062
1623120420.898,-216.309,6.836,-54.688,-226.074
1623120420.902,-1000.000,-10.742,-80.566,-1000.000
1623120420.906,-36.133,8.301,4.395,-114.746
1623120420.910,-811.523,10.254,40.039,-973.633
1623120420.914,173.340,-16.602,-29.785,237.305
1623120420.917,-1000.000,-41.504,-81.543,-1000.000
1623120420.921,-343.262,-37.598,-21.484,-456.543
1623120420.925,-882.324,-29.785,41.504,891.602
1623120420.929,514.160,-48.340,-15.137,622.070
1623120420.933,-996.582,-77.148,-91.309,-768.066
1623120420.937,-673.340,-72.266,-58.105,-713.379
1623120420.941,815.918,-48.340,20.996,647.949
1623120420.944,863.770,-53.223,0.000,870.605
1623120420.948,-554.199,-75.195,-80.078,-430.664
1623120420.952,-1000.000,-88.379,-83.008,-937.012
1623120420.956,335.449,-70.312,-7.812,303.711
1623120420.960,-878.418,-55.176,7.812,-952.637
1623120420.962,-87.402,-79.590,-83.984,-27.832
1623120420.966,-1000.000,-92.773,-113.281,-1000.000
1623120420.970,-82.031,-69.824,-31.250,-83.496
1623120420.974,-804.199,-50.293,18.066,-918.457
1623120420.978,256.348,-66.406,-52.246,381.836
1623120420.982,-1000.000,-94.727,-123.047,-942.383
1623120420.986,-407.715,-75.195,-71.777,-459.961
1623120420.989,-923.828,-46.387,18.066,888.672
1623120420.993,594.727,-52.246,-6.836,689.453
1623120420.997,-909.180,-77.637,-103.516,-687.012
1623120421.001,-753.418,-74.219,-81.055,-767.090
1623120421.005,721.680,-46.387,10.742,580.566
1623120421.007,931.641,-54.199,-8.301,918.945
1623120421.011,-450.684,-75.684,-102.539,-337.402
1623120421.015,-1000.000,-71.289,-101.562,-982.422
1623120421.019,234.375,-38.086,-7.324,201.172
1623120421.023,-854.492,-31.250,20.996,-932.617
1623120421.027,-20.996,-63.477,-67.871,43.945
1623120421.031,-1000.000,-73.730,-108.398,-1000.000
1623120421.034,-172.363,-52.246,-29.785,-204.590
1623120421.038,-817.383,-41.504,26.855,-971.191
1623120421.042,315.918,-58.594,-39.551,438.965
1623120421.046,-1000.000,-72.266,-99.609,-912.598
1623120421.050,-491.211,-53.223,-45.898,-581.055
1623120421.052,-979.980,-34.668,20.996,815.430
1623120421.056,633.301,-40.527,-8.789,673.828
1623120421.060,-874.512,-58.105,-86.914,-731.445
1623120421.064,-828.125,-45.898,-62.012,-830.078
1623120421.068,614.746,-26.855,26.855,483.398
1623120421.072,982.422,-33.203,11.719,947.266
1623120421.076,-359.375,-52.734,-75.684,-279.297
1623120421.079,-1000.000,-57.129,-76.660,-1000.000
1623120421.083,128.418,-32.227,2.930,88.867
1623120421.087,-828.125,-16.602,30.762,-929.199
1623120421.091,63.965,-38.574,-42.480,125.488
1623120421.095,-1000.000,-56.641,-85.449,-1000.000
1623120421.112,-242.188,-39.062,-22.949,-334.961
1623120421.116,-834.961,-21.484,34.668,970.703
1623120421.120,388.672,-32.715,-13.672,496.094
1623120421.124,-1000.000,-54.688,-89.844,-895.508
1623120421.128,-567.871,-42.969,-50.781,-633.301
1623120421.132,937.012,-14.160,30.762,762.207
1623120421.136,729.004,-20.020,6.348,771.484
1623120421.139,-744.629,-44.922,-78.613,-578.125
1623120421.143,-914.062,-43.945,-74.219,-898.438
1623120421.147,490.234,-22.949,7.324,395.508
1623120421.151,-964.844,-18.555,25.879,969.727
1623120421.155,-257.324,-37.598,-56.641,-228.516
1623120421.157,-1000.000,-42.480,-85.449,-1000.000
1623120421.161,26.855,-17.090,-3.906,-9.277
1623120421.165,-815.430,-5.859,40.527,-944.824
1623120421.169,127.930,-30.273,-37.598,186.035
1623120421.173,-1000.000,-52.734,-101.074,-1000.000
1623120421.177,-312.500,-34.180,-30.762,-414.062
1623120421.181,-861.816,-6.836,43.457,930.664
1623120421.184,449.707,-23.926,-13.672,555.664
1623120421.188,-1000.000,-52.734,-100.098,-828.613
1623120421.192,-647.949,-39.551,-53.711,-730.957
1623120421.196,846.680,-10.742,42.480,636.719
1623120421.200,800.781,-22.461,14.648,818.848
1623120421.202,-646.973,-48.828,-72.754,-508.789
1623120421.206,-986.816,-43.945,-66.406,-952.637
1623120421.210,378.906,-17.578,19.043,294.434
1623120421.214,-920.898,-9.277,31.250,-998.047
1623120421.218,-168.945,-33.203,-51.758,-125.977
1623120421.222,-1000.000,-41.992,-78.613,-1000.000
1623120421.226,-53.711,-13.184,4.883,-120.117
1623120421.229,-810.059,-9.277,44.922,-965.332
1623120421.233,193.848,-34.180,-29.297,291.504
1623120421.237,-1000.000,-42.480,-77.148,-1000.000
1623120421.241,-382.324,-23.926,-29.297,-496.094
1623120421.245,-905.273,-1.953,38.086,872.559
1623120421.247,528.320,-13.184,2.930,625.488
1623120421.251,-979.004,-37.598,-76.172,-759.766
1623120421.255,-727.051,-34.180,-53.223,-790.039
1623120421.259,755.859,-17.090,22.461,568.848
1623120421.263,866.211,-18.555,12.207,856.934
1623120421.267,-547.363,-42.969,-75.195,-443.359
1623120421.271,-1000.000,-46.875,-84.473,-999.512
1623120421.274,266.113,-23.438,-1.465,195.312
1623120421.278,-883.301,-13.672,33.203,-967.285
1623120421.282,-84.473,-37.109,-38.086,-41.992
1623120421.286,-1000.000,-41.992,-80.078,-1000.000
1623120421.290,-142.578,-17.578,-13.672,-228.516
1623120421.292,-814.941,-9.277,42.969,-991.211
1623120421.296,272.461,-23.438,-16.602,361.328
1623120421.300,-1000.000,-38.574,-82.520,-980.957
1623120421.304,-445.801,-24.902,-27.344,-574.219
1623120421.308,-950.684,-2.441,41.016,801.758
1623120421.312,604.492,-9.766,-4.883,668.457
1623120421.316,-892.090,-35.156,-89.355,-711.914
1623120421.319,-804.688,-29.785,-66.895,-833.984
1623120421.323,653.809,-4.883,32.227,499.512
1623120421.327,939.453,-14.160,27.832,903.320
1623120421.331,-432.617,-42.969,-76.660,-361.328
1623120421.335,-1000.000,-42.969,-82.520,-1000.000
1623120421.337,170.410,-16.602,10.742,116.211
1623120421.341,-850.098,-4.883,35.156,-958.496
1623120421.345,0.488,-34.180,-46.875,33.691
1623120421.349,-1000.000,-43.945,-94.238,-1000.000
1623120421.353,-208.008,-18.066,-18.555,-289.551
1623120421.357,-825.684,-1.953,36.133,979.004
1623120421.361,331.543,-19.531,-31.738,439.453
1623120421.364,-1000.000,-41.504,-82.031,-922.363
1623120421.368,-523.438,-21.484,-22.949,-639.648
1623120421.372,979.980,-5.371,48.340,734.375
1623120421.376,674.316,-22.949,15.625,735.352
1623120421.380,-810.547,-42.480,-73.242,-629.883
1623120421.381,-878.418,-31.738,-65.430,-877.930
1623120421.385,546.875,-9.277,8.789,431.152
1623120421.389,-998.535,-14.160,13.184,943.848
1623120421.393,-323.730,-37.109,-59.082,-283.203
1623120421.397,-1000.000,-41.016,-79.590,-1000.000
1623120421.401,75.684,-21.973,-4.883,27.832
1623120421.405,-827.148,-2.441,36.621,-956.543
1623120421.408,74.707,-17.090,-28.809,116.211
1623120421.412,-1000.000,-49.316,-85.449,-1000.000
1623120421.416,-270.996,-31.250,-26.367,-376.953
1623120421.420,-845.703,-2.441,49.316,941.406
1623120421.424,411.133,-14.160,7.324,515.137
1623120421.427,-1000.000,-34.668,-77.637,-865.234
1623120421.431,-600.098,-25.879,-38.574,-691.895
1623120421.435,900.879,-1.465,44.434,685.547
1623120421.439,756.836,-8.789,17.578,782.715
1623120421.443,-706.543,-32.227,-68.359,-563.477
1623120421.447,-947.754,-37.109,-77.148,-920.898
1623120421.451,440.918,-15.625,20.996,344.727
1623120421.454,-943.848,-12.207,45.898,980.469
1623120421.458,-221.191,-41.016,-53.711,-190.918
1623120421.462,-1000.000,-42.480,-86.426,-1000.000
1623120421.466,-2.441,-12.207,4.395,-64.453
1623120421.470,-811.523,-6.836,53.223,-960.449
1623120421.487,159.180,-33.691,-26.855,231.934
1623120421.491,-1000.000,-42.480,-86.426,-1000.000
1623120421.495,-341.797,-22.949,-27.344,-460.938
1623120421.499,-877.441,-6.348,39.062,894.043
1623120421.503,476.562,-22.949,-5.859,582.031
1623120421.507,-1000.000,-46.875,-87.891,-799.316
1623120421.511,-679.688,-34.180,-49.316,-753.418
1623120421.514,811.523,-12.695,40.039,611.328
1623120421.518,822.754,-12.695,24.414,834.961
1623120421.522,-613.281,-35.645,-63.965,-485.840
1623120421.526,-1000.000,-35.156,-66.406,-966.309
1623120421.530,331.543,-10.254,15.137,263.184
1623120421.532,-909.180,-10.742,30.762,-985.352
1623120421.536,-143.066,-39.551,-50.781,-101.562
1623120421.540,-1000.000,-50.293,-83.496,-1000.000
1623120421.544,-89.355,-23.438,-17.578,-151.367
1623120421.548,-810.547,-7.812,35.645,-979.004
1623120421.552,221.680,-26.855,-28.809,309.570
1623120421.556,-1000.000,-40.527,-96.680,-1000.000
1623120421.559,-414.551,-25.391,-37.109,-533.203
1623120421.563,-925.781,-7.812,22.949,841.309
1623120421.567,552.246,-20.508,-16.113,627.441
1623120421.571,-953.613,-45.410,-86.426,-759.277
1623120421.575,-757.324,-35.645,-65.430,-799.316
1623120421.577,712.402,-3.906,21.973,546.387
1623120421.581,899.414,-8.789,22.949,879.883
1623120421.585,-493.164,-38.086,-68.359,-406.250
1623120421.589,-1000.000,-42.480,-82.520,-1000.000
1623120421.593,227.539,-12.207,13.184,175.293
1623120421.597,-871.094,-4.883,27.832,-968.750
1623120421.601,-53.711,-33.203,-55.176,-19.531
1623120421.604,-1000.000,-45.410,-89.355,-1000.000
1623120421.608,-177.734,-23.926,-16.113,-240.234
1623120421.612,-820.801,1.953,48.340,-1000.000
1623120421.616,292.480,-13.672,-24.414,381.836
1623120421.620,-1000.000,-39.062,-95.703,-970.703
1623120421.622,-487.305,-22.461,-42.480,-600.098
1623120421.626,-989.258,5.371,37.598,778.809
1623120421.630,640.137,-1.465,1.953,691.895
1623120421.634,-857.422,-26.855,-91.309,-681.152
1623120421.638,-827.148,-19.043,-77.148,-848.145
1623120421.642,621.094,11.230,12.695,473.145
1623120421.646,965.820,8.301,15.137,923.828
1623120421.649,-383.789,-24.414,-77.148,-324.219
1623120421.653,-1000.000,-29.785,-84.961,-1000.000
1623120421.657,131.836,-2.930,10.742,81.543
1623120421.661,-838.867,5.371,33.691,-956.543
1623120421.665,35.645,-17.578,-43.945,80.566
1623120421.666,-1000.000,-29.297,-89.355,-1000.000
1623120421.670,-238.770,-12.695,-27.344,-331.543
1623120421.674,-829.102,-10.254,35.156,971.680
1623120421.678,348.145,-30.762,-19.531,444.824
1623120421.682,-1000.000,-41.992,-84.473,-883.301
1623120421.686,-504.883,-31.250,-46.387,-609.375
1623120421.690,929.688,-11.230,22.949,712.402
1623120421.693,707.520,-17.090,6.836,751.465
1623120421.697,-771.484,-35.156,-68.359,-609.375
1623120421.701,-905.273,-19.043,-62.012,-900.391
1623120421.705,507.812,-7.812,22.949,416.504
1623120421.709,-984.863,-22.461,31.250,910.645
1623120421.712,-294.922,-35.156,-56.641,-328.613
1623120421.716,-1000.000,-35.645,-79.102,-1000.000
1623120421.720,41.504,-14.160,-0.488,-16.113
1623120421.724,-821.289,-8.301,41.992,-971.191
1623120421.728,108.398,-27.832,-34.180,152.344
1623120421.732,-1000.000,-37.109,-98.633,-1000.000
1623120421.736,-308.105,-24.902,-36.621,-420.898
1623120421.739,-862.305,-5.859,35.156,914.551
1623120421.743,434.570,-15.625,-5.859,544.922
1623120421.747,-1000.000,-45.898,-89.355,-842.773
1623120421.751,-639.160,-38.086,-52.246,-713.867
1623120421.755,858.398,-10.254,36.133,665.039
1623120421.757,777.832,-13.672,8.301,796.875
1623120421.761,-678.223,-40.527,-79.590,-541.016
1623120421.765,-975.586,-40.527,-72.754,-947.266
1623120421.769,395.508,-7.324,29.297,301.270
1623120421.773,-932.129,-5.859,40.527,994.141
1623120421.777,-191.406,-40.039,-63.965,-149.902
1623120421.781,-1000.000,-46.387,-92.773,-1000.000
1623120421.784,-41.504,-15.137,2.441,-116.211
1623120421.788,-811.523,0.000,54.688,-976.562
1623120421.792,181.152,-22.461,-25.391,255.371
1623120421.796,-1000.000,-40.527,-93.750,-1000.000
1623120421.800,-373.047,-18.555,-28.320,-498.047
1623120421.816,-898.438,-5.371,39.062,863.281
1623120421.820,509.766,-25.391,-11.230,596.191
1623120421.824,-996.094,-44.922,-87.402,-787.598
1623120421.828,-709.473,-27.832,-58.105,-771.973
1623120421.832,773.926,-7.812,13.184,583.984
1623120421.836,853.027,-18.066,-8.789,844.238
1623120421.840,-567.871,-41.016,-85.938,-462.891
1623120421.843,-1000.000,-46.387,-87.402,-982.910
1623120421.847,292.969,-20.020,3.418,222.656
1623120421.851,-891.602,-7.324,23.926,-974.121
1623120421.855,-103.516,-26.855,-54.199,-58.594
1623120421.859,-1000.000,-38.574,-90.332,-1000.000
1623120421.862,-125.977,-21.484,-24.414,-182.129
1623120421.866,-813.477,-4.883,33.203,-977.539
1623120421.870,250.000,-25.391,-27.832,347.168
1623120421.874,-1000.000,-45.898,-89.355,-990.723
1623120421.878,-433.105,-29.785,-33.691,-540.527
1623120421.882,-934.570,-9.277,40.039,842.285
1623120421.886,584.473,-20.996,5.371,665.039
1623120421.889,-914.551,-36.621,-72.266,-710.938
1623120421.893,-792.480,-30.762,-61.523,-822.266
1623120421.897,666.016,-11.719,9.766,520.508
1623120421.901,924.805,-9.766,21.973,892.090
1623120421.905,-454.102,-36.133,-59.082,-384.277
1623120421.907,-1000.000,-42.969,-80.566,-1000.000
1623120421.911,190.918,-19.043,7.324,143.066
1623120421.915,-854.492,-9.277,40.039,-959.473
1623120421.919,-15.625,-36.133,-44.434,25.391
1623120421.923,-1000.000,-58.105,-99.609,-1000.000
1623120421.927,-193.848,-34.668,-26.855,-272.461
1623120421.931,-822.754,-10.254,41.992,989.258
1623120421.934,318.848,-33.203,-13.672,413.086
1623120421.938,-1000.000,-51.270,-85.938,-943.359
1623120421.942,-515.625,-32.227,-32.715,-617.676
1623120421.946,984.863,-8.301,56.641,757.324
1623120421.950,666.992,-13.672,18.066,722.168
1623120421.952,-821.777,-35.645,-73.730,-643.066
1623120421.956,-862.793,-29.297,-57.617,-869.629
1623120421.960,570.312,-4.395,34.668,440.918
1623120421.964,985.840,-1.953,36.133,948.242
1623120421.968,-347.656,-28.809,-58.105,-279.297
1623120421.972,-1000.000,-41.504,-77.637,-1000.000
1623120421.976,91.797,-14.648,9.277,42.480
1623120421.979,-833.496,-4.883,42.969,-953.125
1623120421.983,62.988,-26.367,-36.133,131.348
1623120421.987,-1000.000,-33.691,-76.660,-1000.000
1623120421.991,-215.820,-15.625,-5.859,-331.543
1623120421.995,-978.516,-3.906,34.180,846.680
1623120421.997,129.883,-23.438,-28.320,306.641
1623120422.001,-1000.000,-43.457,-82.031,-861.816
1623120422.005,-587.402,-30.273,-48.828,-682.617
1623120422.009,899.414,-5.371,25.879,682.617
1623120422.013,733.398,-9.277,7.812,772.461
1623120422.017,-738.281,-30.762,-75.195,-574.219
1623120422.021,-935.059,-31.738,-69.336,-920.898
1623120422.024,459.961,-11.230,9.277,356.445
1623120422.028,-959.473,-4.883,25.879,968.750
1623120422.032,-245.117,-26.367,-53.223,-223.633
1623120422.036,-1000.000,-38.086,-85.449,-1000.000
1623120422.040,10.254,-15.625,1.953,-47.363
1623120422.042,-813.477,0.000,48.340,-961.426
1623120422.046,142.090,-17.578,-29.297,211.426
1623120422.050,-1000.000,-39.062,-98.633,-1000.000
1623120422.054,-334.473,-23.438,-33.203,-452.637
1623120422.058,-873.047,-7.812,43.945,895.508
1623120422.062,458.008,-28.809,-15.625,562.500
1623120422.066,-1000.000,-51.270,-96.191,-819.824
1623120422.069,-666.016,-42.969,-50.781,-735.352
1623120422.073,826.660,-6.836,43.945,628.906
1623120422.077,807.129,-9.766,25.391,819.824
1623120422.081,-634.766,-41.016,-67.383,-504.395
1623120422.085,-1000.000,-43.945,-67.871,-964.844
1623120422.086,350.586,-27.344,18.066,268.066
1623120422.090,-915.527,-20.508,36.621,-998.047
1623120422.094,-156.738,-40.527,-54.199,-125.488
1623120422.098,-1000.000,-47.363,-87.891,-1000.000
1623120422.102,-72.754,-21.484,-3.906,-129.883
1623120422.106,-811.035,-3.906,45.898,-953.125
1623120422.110,211.914,-17.090,-31.738,290.039
1623120422.113,-1000.000,-34.668,-97.168,-1000.000
1623120422.117,-398.438,-24.902,-29.297,-523.438
1623120422.121,-915.527,-9.766,41.992,843.262
1623120422.125,543.457,-22.461,-7.812,630.859
1623120422.129,-961.426,-44.434,-90.820,-749.023
1623120422.132,-744.629,-33.203,-58.105,-798.828
1623120422.136,730.469,-6.836,29.297,550.293
1623120422.140,886.719,-12.207,11.230,865.723
1623120422.144,-514.648,-33.691,-82.520,-426.270
1623120422.148,-1000.000,-31.250,-79.590,-998.047
1623120422.152,251.953,-29.785,11.230,184.570
1623120422.156,-875.977,-25.879,28.320,-971.191
1623120422.159,-70.312,-29.297,-39.062,-33.691
1623120422.163,-1000.000,-40.039,-76.172,-1000.000
1623120422.167,-147.461,-16.602,-12.695,-222.656
1623120422.171,-815.430,0.000,46.387,-993.164
1623120422.175,281.738,-21.484,-14.160,387.695
1623120422.191,-1000.000,-43.945,-82.031,-957.031
1623120422.195,-464.844,-25.391,-36.133,-572.754
1623120422.199,-969.238,-5.371,39.551,801.270
1623120422.203,623.535,-14.648,9.277,690.918
1623120422.207,-871.094,-34.668,-76.660,-681.641
1623120422.211,-817.871,-34.180,-56.152,-833.008
1623120422.215,634.766,-1.953,34.668,491.699
1623120422.218,953.125,1.953,33.203,920.410
1623120422.222,-405.762,-22.949,-52.246,-328.613
1623120422.226,-1000.000,-36.133,-78.613,-1000.000
1623120422.230,147.461,-16.602,8.301,107.910
1623120422.234,-843.262,-3.906,47.363,-958.008
1623120422.236,18.555,-34.180,-43.945,59.082
1623120422.240,-1000.000,-48.340,-84.473,-1000.000
1623120422.244,-224.121,-24.902,-15.625,-315.918
1623120422.248,-830.566,-7.324,37.109,968.262
1623120422.252,348.145,-26.855,-13.184,449.219
1623120422.256,-1000.000,-50.781,-89.355,-920.898
1623120422.260,-544.434,-31.738,-45.410,-649.414
1623120422.263,958.984,-8.301,44.434,730.957
1623120422.267,689.941,-20.996,8.789,743.652
1623120422.271,-792.480,-45.898,-82.520,-612.305
1623120422.275,-891.113,-28.809,-57.129,-891.602
1623120422.279,525.879,-6.348,27.832,405.273
1623120422.281,-991.699,-15.137,25.879,953.125
1623120422.285,-307.617,-35.156,-52.246,-264.160
1623120422.289,-1000.000,-37.598,-75.684,-1000.000
1623120422.293,62.500,-16.113,-2.441,9.766
1623120422.297,-823.242,-9.277,36.133,-958.496
1623120422.301,94.727,-32.227,-41.992,156.738
1623120422.305,-1000.000,-45.410,-91.309,-1000.000
1623120422.308,-295.898,-19.043,-18.555,-404.297
1623120422.312,-854.492,-8.789,34.180,917.969
1623120422.316,413.574,-21.973,-11.719,521.973
1623120422.320,-1000.000,-35.156,-72.266,-859.375
1623120422.324,-621.094,-31.250,-40.527,-707.520
1623120422.326,873.535,-1.953,44.434,663.574
1623120422.330,774.414,-5.859,24.414,795.410
1623120422.334,-682.129,-31.250,-70.801,-538.574
1623120422.338,-964.355,-29.297,-70.801,-939.453
1623120422.342,414.062,-8.789,8.301,312.500
1623120422.346,-937.988,-5.371,20.996,988.770
1623120422.350,-203.125,-35.156,-52.734,-171.387
1623120422.353,-1000.000,-48.828,-88.867,-1000.000
1623120422.357,-33.691,-23.926,-17.090,-97.656
1623120422.361,-813.477,-19.531,44.434,-971.680
1623120422.365,165.527,-39.062,-22.461,239.258
1623120422.369,-1000.000,-37.598,-85.449,-1000.000
1623120422.371,-362.305,-20.996,-27.344,-478.027
1623120422.375,-891.113,-7.324,41.016,879.395
1623120422.379,494.629,-16.602,-3.418,589.844
1623120422.383,-1000.000,-34.180,-85.449,-791.504
1623120422.387,-700.684,-28.809,-59.570,-770.020
1623120422.391,784.668,-12.695,24.902,585.449
1623120422.395,839.355,-15.625,18.555,839.844
1623120422.398,-586.914,-47.852,-72.266,-464.355
1623120422.402,-1000.000,-44.434,-74.707,-984.375
1623120422.406,300.781,-12.207,24.902,219.727
1623120422.410,-900.391,-21.484,37.598,-989.746
1623120422.414,-121.094,-44.434,-54.688,-87.891
1623120422.416,-1000.000,-43.457,-90.332,-1000.000
1623120422.420,-111.328,-21.973,-13.672,-190.430
1623120422.424,-812.012,-15.625,38.086,-994.141
1623120422.428,238.281,-34.668,-25.879,325.684
1623120422.432,-1000.000,-43.945,-90.820,-1000.000
1623120422.436,-431.641,-24.902,-33.691,-542.480
1623120422.440,-941.406,-7.324,45.898,828.613
1623120422.443,573.730,-22.949,-2.930,657.227
1623120422.447,-930.664,-41.016,-84.473,-725.098
1623120422.451,-770.996,-27.832,-48.828,-808.594
1623120422.455,693.848,-5.371,35.156,540.039
1623120422.459,918.945,-8.301,27.344,885.742
1623120422.461,-464.355,-39.062,-62.500,-394.531
1623120422.465,-1000.000,-43.945,-74.707,-1000.000
1623120422.469,212.891,-13.184,19.043,150.879
1623120422.473,-856.934,-7.324,34.668,-977.539
1623120422.477,-22.461,-38.574,-59.082,-5.859
1623120422.481,-1000.000,-54.199,-95.215,-1000.000
1623120422.485,-183.594,-24.414,-27.832,-260.254
1623120422.488,-820.801,-6.348,35.156,996.582
1623120422.492,308.105,-25.391,-13.672,403.320
1623120422.496,-1000.000,-40.527,-89.844,-952.148
1623120422.500,-500.488,-15.137,-45.898,-605.469
1623120422.504,-999.023,5.371,30.762,774.414
1623120422.506,647.949,-14.160,-1.953,711.914
1623120422.510,-843.750,-37.109,-86.426,-652.832
1623120422.514,-848.633,-31.250,-69.336,-864.258
1623120422.518,588.379,-6.836,22.461,447.754
1623120422.522,978.516,-8.301,21.973,928.223
1623120422.526,-363.770,-33.691,-70.801,-306.152
1623120422.530,-1000.000,-40.527,-87.891,-1000.000
1623120422.533,112.305,-11.230,10.254,53.711
1623120422.537,-833.984,2.441,52.246,-959.961
1623120422.541,52.246,-26.855,-39.062,95.215
1623120422.545,-1000.000,-40.039,-84.473,-1000.000
1623120422.549,-252.441,-15.137,-12.695,-343.262
1623120422.552,-838.379,-6.348,37.598,958.984
1623120422.556,377.930,-21.484,-15.625,480.469
1623120422.560,-1000.000,-40.039,-82.031,-893.066
1623120422.564,-582.031,-27.832,-38.574,-673.828
1623120422.568,919.922,1.465,37.109,701.660
1623120422.572,726.562,-13.184,8.301,774.902
1623120422.576,-746.582,-43.457,-69.824,-578.125
1623120422.579,-925.293,-42.480,-51.758,-901.367
1623120422.583,474.121,-19.043,31.250,382.812
1623120422.587,-969.727,-16.113,39.062,964.844
1623120422.591,-262.207,-41.992,-39.062,-223.633
1623120422.595,-1000.000,-46.875,-72.266,-1000.000
1623120422.611,15.625,-23.438,-5.859,-21.973
1623120422.615,-818.359,-11.230,44.922,-958.008
1623120422.619,125.977,-30.273,-22.949,181.641
1623120422.623,-1000.000,-41.504,-84.961,-1000.000
1623120422.627,-320.801,-25.879,-31.738,-425.293
1623120422.631,-868.164,-10.742,28.320,916.504
1623120422.635,452.637,-15.625,-17.090,547.363
1623120422.638,-1000.000,-30.273,-97.656,-833.984
1623120422.642,-657.227,-24.902,-62.988,-740.723
1623120422.646,835.449,-5.859,29.785,626.953
1623120422.650,803.223,-5.859,24.902,809.570
1623120422.654,-643.555,-28.809,-75.684,-523.926
1623120422.656,-990.723,-32.715,-78.613,-955.078
1623120422.660,369.629,-7.324,17.090,279.785
1623120422.664,-916.016,-5.371,31.738,997.070
1623120422.668,-159.668,-27.344,-50.293,-134.277
1623120422.672,-1000.000,-41.992,-84.961,-1000.000
1623120422.676,-60.547,-22.461,-6.836,-127.441
1623120422.680,-809.570,3.418,40.039,-975.586
1623120422.683,208.984,-18.555,-31.250,279.297
1623120422.687,-1000.000,-41.504,-92.285,-1000.000
1623120422.691,-389.648,-24.414,-33.691,-500.000
1623120422.695,-908.691,-1.953,50.293,858.398
1623120422.699,537.109,-22.949,-2.930,613.281
1623120422.702,-968.262,-50.293,-86.426,-765.625
1623120422.706,-735.352,-39.062,-50.781,-788.086
1623120422.710,743.164,-14.648,30.273,555.664
1623120422.714,873.535,-10.254,17.090,858.398
1623120422.718,-533.691,-32.715,-79.590,-435.059
1623120422.722,-1000.000,-29.785,-83.496,-1000.000
1623120422.726,263.672,-3.418,13.184,185.059
1623120422.729,-884.766,-7.812,23.438,-988.281
1623120422.733,-86.426,-29.785,-64.941,-52.246
1623120422.737,-1000.000,-34.668,-90.820,-1000.000
1623120422.741,-148.926,-19.043,-10.254,-242.676
1623120422.745,-817.383,-13.672,29.297,984.863
1623120422.747,265.625,-32.227,-40.527,356.445
1623120422.751,-1000.000,-44.434,-90.820,-980.469
1623120422.755,-467.773,-34.668,-41.504,-584.961
1623120422.759,-971.191,-19.043,29.297,792.480
1623120422.763,606.934,-26.855,0.977,685.547
1623120422.767,-894.531,-60.547,-83.984,-691.406
1623120422.771,-804.688,-59.082,-61.035,-835.938
1623120422.774,649.902,-33.691,26.855,493.164
1623120422.778,942.871,-36.133,40.527,916.016
1623120422.782,-426.758,-59.570,-31.738,-339.355
1623120422.786,-1000.000,-64.453,-62.500,-1000.000
1623120422.790,172.852,-24.902,20.508,134.766
1623120422.792,-845.215,-6.348,58.105,-948.242
1623120422.796,14.160,-25.879,-23.438,56.152
1623120422.800,-1000.000,-34.180,-76.172,-1000.000
1623120422.804,-213.379,-19.531,-13.184,-300.781
1623120422.808,-827.637,-0.977,40.039,970.215
1623120422.812,343.262,-9.766,-31.250,436.523
1623120422.816,-1000.000,-33.691,-104.004,-930.176
1623120422.819,-542.969,-21.973,-51.758,-646.484
1623120422.823,961.426,4.395,30.762,731.934
1623120422.827,683.594,-9.277,-8.789,717.773
1623120422.831,-800.781,-38.574,-102.051,-642.578
1623120422.835,-883.301,-26.855,-81.055,-894.531
1623120422.837,536.621,0.000,9.766,398.926
1623120422.841,-996.582,-4.883,12.695,928.223
1623120422.845,-317.871,-32.715,-73.242,-293.945
1623120422.849,-1000.000,-31.738,-88.379,-1000.000
1623120422.853,72.754,-3.906,-5.371,15.625
1623120422.857,-823.730,1.953,27.344,-954.590
1623120422.861,91.797,-21.484,-54.199,149.902
1623120422.864,-1000.000,-42.480,-100.586,-1000.000
1623120422.868,-276.855,-17.578,-31.250,-375.488
1623120422.872,-846.191,8.789,27.344,947.266
1623120422.876,414.062,-11.719,-30.273,523.438
1623120422.880,-1000.000,-31.738,-92.773,-853.027
1623120422.882,-606.934,-20.996,-44.922,-695.312
1623120422.886,890.625,-4.883,30.273,674.805
1623120422.890,765.625,-10.742,17.090,797.852
1623120422.894,-711.914,-32.715,-55.664,-558.105
1623120422.898,-913.086,-31.738,-48.340,-890.625
1623120422.902,493.164,-12.207,35.645,386.230
1623120422.906,-952.148,-16.602,50.781,982.910
1623120422.909,-216.309,-28.809,-27.344,-174.805
1623120422.913,-1000.000,-29.785,-62.988,-1000.000
1623120422.917,-17.578,-18.066,7.812,-69.824
1623120422.921,-812.012,-13.184,52.246,-958.984
1623120422.925,165.527,-26.855,-17.090,226.074
1623120422.927,-1000.000,-41.016,-90.332,-1000.000
1623120422.931,-352.051,-25.879,-39.062,-465.820
1623120422.935,-884.277,-3.418,40.527,888.184
1623120422.939,492.676,-16.113,-5.371,571.289
1623120422.943,-1000.000,-37.598,-84.961,-813.965
1623120422.947,-685.547,-32.715,-62.500,-755.371
1623120422.951,803.223,-17.090,20.996,602.051
1623120422.954,832.031,-15.625,15.625,831.055
1623120422.958,-596.680,-27.832,-76.660,-479.980
1623120422.962,-1000.000,-36.133,-86.426,-973.145
1623120422.966,321.777,-20.020,-0.977,233.398
1623120422.970,-905.273,-8.789,19.043,-994.629
1623120422.987,-132.324,-30.762,-64.941,-96.680
1623120422.991,-1000.000,-44.922,-92.773,-1000.000
1623120422.995,-102.051,-23.926,-10.742,-160.156
1623120422.999,-812.012,-6.836,37.598,-979.980
1623120423.003,228.516,-33.203,-21.484,321.777
1623120423.007,-1000.000,-54.199,-95.215,-999.023
1623120423.011,-428.223,-28.809,-46.387,-547.852
1623120423.014,-937.012,-9.277,41.504,826.172
1623120423.018,562.500,-20.996,-2.441,645.508
1623120423.022,-943.359,-42.480,-91.309,-728.516
1623120423.026,-766.602,-34.668,-58.105,-810.547
1623120423.030,699.219,-8.789,26.367,525.879
1623120423.031,910.645,-11.230,20.020,894.531
1623120423.035,-476.562,-26.367,-60.059,-384.277
1623120423.039,-1000.000,-36.621,-74.219,-1000.000
1623120423.043,220.215,-19.531,7.812,162.598
1623120423.047,-866.211,-10.254,30.762,-969.727
1623120423.051,-41.504,-31.250,-51.270,-4.883
1623120423.055,-1000.000,-41.992,-78.125,-1000.000
1623120423.058,-180.664,-28.320,0.000,-251.953
1623120423.062,-821.777,-18.066,40.039,-992.676
1623120423.066,292.969,-28.809,-23.438,393.066
1623120423.070,-1000.000,-47.363,-72.266,-958.984
1623120423.074,-500.000,-34.180,-25.391,-601.562
1623120423.077,999.512,-12.207,44.922,771.973
1623120423.081,642.578,-28.809,15.625,710.449
1623120423.085,-850.586,-52.734,-67.871,-654.785
1623120423.089,-848.633,-42.969,-55.176,-863.281
1623120423.093,589.844,-16.602,32.227,450.195
1623120423.097,967.773,-16.113,28.320,927.734
1623120423.101,-378.906,-39.551,-57.129,-309.082
1623120423.104,-1000.000,-49.316,-73.730,-1000.000
1623120423.108,116.211,-19.043,1.465,67.383
1623120423.112,-839.355,0.488,48.828,-957.520
1623120423.116,38.574,-26.367,-37.109,79.590
1623120423.120,-1000.000,-44.922,-100.098,-1000.000
1623120423.122,-244.629,-25.391,-27.344,-343.262
1623120423.126,-836.914,-3.906,36.621,955.078
1623120423.130,374.512,-7.812,-20.996,477.051
1623120423.134,-1000.000,-22.461,-97.656,-900.391
1623120423.138,-575.684,-13.672,-51.270,-672.852
1623120423.142,926.758,7.324,25.879,702.148
1623120423.146,718.750,1.465,4.395,756.348
1623120423.149,-756.348,-30.762,-80.566,-591.309
1623120423.153,-917.480,-28.809,-68.848,-910.645
1623120423.157,483.887,-12.207,20.996,355.957
1623120423.161,-974.121,-14.648,20.996,959.473
1623120423.165,-270.996,-31.250,-61.523,-241.211
1623120423.182,-1000.000,-41.992,-79.590,-1000.000
1623120423.186,29.297,-26.855,2.930,39.062
1623120423.190,-820.801,-15.137,36.621,-970.703
1623120423.194,112.793,-25.879,-31.738,173.828
1623120423.198,-1000.000,-39.551,-81.543,-1000.000
1623120423.202,-318.848,-29.297,-22.461,-415.527
1623120423.206,-868.164,-10.742,40.527,916.992
1623120423.209,443.359,-23.438,-3.906,556.152
1623120423.213,-1000.000,-46.387,-74.707,-827.148
1623120423.217,-643.066,-33.203,-43.945,-727.051
1623120423.221,850.098,-8.789,35.645,638.672
1623120423.225,795.410,-17.578,20.508,813.477
1623120423.211,-652.832,-53.223,-64.941,-513.184
1623120423.215,-980.469,-50.293,-64.453,-946.777
1623120423.219,385.254,-17.090,20.996,300.293
1623120423.223,-922.363,-19.043,33.203,-996.094
1623120423.227,-172.363,-40.527,-42.480,-134.277
1623120423.231,-1000.000,-45.410,-72.266,-1000.000
1623120423.235,-48.828,-15.625,-8.301,-97.656
1623120423.238,-810.547,-5.859,43.457,-969.238
1623120423.242,193.848,-30.762,-27.344,261.230
1623120423.246,-1000.000,-40.039,-89.355,-1000.000
1623120423.250,-387.695,-29.297,-39.062,-501.953
1623120423.254,-908.691,-10.254,38.086,852.539
1623120423.256,520.508,-7.324,2.930,612.305
1623120423.260,-984.863,-36.621,-100.586,-766.602
1623120423.264,-725.098,-39.551,-73.242,-787.109
1623120423.268,753.418,-10.742,23.438,565.918
1623120423.272,862.305,-14.160,12.695,852.051
1623120423.276,-547.363,-40.039,-71.777,-447.754
1623120423.280,-1000.000,-41.504,-81.055,-987.793
1623120423.283,267.578,-24.414,9.766,203.125
1623120423.287,-884.766,-18.066,38.086,-988.770
1623120423.291,-89.355,-26.367,-56.152,-65.430
1623120423.295,-1000.000,-30.273,-89.844,-1000.000
1623120423.299,-132.812,-13.184,-11.230,-213.867
1623120423.316,-814.941,-1.465,31.738,996.582
1623120423.320,253.418,-15.625,-33.203,340.332
1623120423.324,-1000.000,-34.668,-93.262,-986.816
1623120423.328,-457.031,-27.344,-35.156,-584.473
1623120423.332,-962.891,-9.766,40.527,782.715
1623120423.336,594.238,-23.438,-10.254,674.805
1623120423.340,-908.691,-39.062,-92.285,-699.707
1623120423.343,-791.992,-20.508,-52.246,-832.031
1623120423.347,666.016,-0.977,31.738,498.535
1623120423.351,932.129,-9.766,20.020,900.391
1623120423.355,-436.523,-24.414,-71.777,-365.723
1623120423.359,-1000.000,-29.785,-79.590,-1000.000
1623120423.362,174.316,-19.043,10.254,114.258
1623120423.366,-851.074,-7.324,40.039,-969.238
1623120423.370,-3.906,-30.273,-41.016,28.320
1623120423.374,-1000.000,-43.945,-83.984,-1000.000
1623120423.378,-201.660,-19.531,-17.578,-274.414
1623120423.382,-825.684,-7.812,34.668,988.281
1623120423.386,334.961,-23.438,-10.742,429.688
1623120423.389,-1000.000,-44.922,-76.660,-931.152
1623120423.393,-532.227,-36.133,-44.434,-622.070
1623120423.397,971.680,-9.766,30.762,755.371
1623120423.401,668.945,-17.578,7.812,723.633
1623120423.405,-816.406,-44.922,-77.148,-639.160
1623120423.407,-877.441,-37.109,-66.406,-877.930
1623120423.411,544.922,-1.465,17.578,423.340
1623120423.415,993.164,5.371,35.645,933.105
1623120423.419,-333.008,-27.832,-57.129,-290.527
1623120423.423,-1000.000,-50.293,-94.238,-1000.000
1623120423.427,79.590,-28.320,0.977,17.090
1623120423.431,-827.148,-3.418,56.152,-962.402
1623120423.434,78.125,-25.879,-21.484,125.000
1623120423.438,-1000.000,-52.734,-90.820,-1000.000
1623120423.442,-272.461,-24.414,-26.367,-368.164
1623120423.446,-845.703,4.883,48.340,937.988
1623120423.450,406.250,-12.207,-4.883,507.812
1623120423.452,-1000.000,-37.598,-81.543,-861.328
1623120423.456,-601.074,-24.414,-43.945,-686.035
1623120423.460,897.461,0.000,37.109,687.988
1623120423.464,756.836,-20.020,14.160,785.645
1623120423.468,-702.637,-40.039,-72.754,-554.199
1623120423.472,-949.219,-24.414,-65.430,-917.969
1623120423.476,438.965,-0.488,20.020,350.586
1623120423.479,-952.148,-7.324,28.809,983.398
1623120423.483,-230.469,-29.297,-62.012,-182.617
1623120423.487,-1000.000,-30.762,-86.914,-1000.000
1623120423.491,-8.789,-7.812,-11.719,-59.082
1623120423.495,-812.988,3.418,22.461,-958.984
1623120423.496,158.203,-15.625,-44.434,220.703
1623120423.500,-1000.000,-28.320,-91.309,-1000.000
1623120423.504,-341.797,-17.090,-35.645,-439.453
1623120423.508,-877.930,6.836,28.809,898.438
1623120423.512,477.051,-3.906,-9.766,574.707
1623120423.516,-1000.000,-30.762,-83.496,-802.734
1623120423.520,-679.199,-20.508,-47.852,-743.652
1623120423.523,809.570,-3.906,18.555,616.211
1623120423.527,824.219,-6.836,-0.488,829.102
1623120423.531,-608.887,-27.344,-54.199,-487.305
1623120423.535,-1000.000,-27.832,-52.734,-962.402
1623120423.539,330.566,1.953,18.066,265.137
1623120423.542,-912.598,2.441,32.227,-998.535
1623120423.546,-145.996,-27.832,-46.875,-116.211
1623120423.550,-1000.000,-43.945,-83.984,-1000.000
1623120423.554,-92.773,-16.602,-6.836,-145.020
1623120423.558,-814.453,4.883,42.480,968.262
1623120423.562,218.262,-21.484,-31.250,221.680
1623120423.566,-1000.000,-37.109,-93.750,-1000.000
1623120423.569,-420.410,-22.461,-45.898,-526.855
1623120423.573,-933.594,0.488,34.668,829.102
1623120423.577,561.523,-5.371,3.906,630.371
1623120423.581,-946.289,-29.297,-77.148,-745.605
1623120423.585,-751.465,-20.020,-43.945,-797.363
1623120423.586,721.680,7.324,45.898,542.969
1623120423.590,895.996,2.930,28.320,868.652
1623120423.594,-495.117,-21.973,-52.734,-412.598
1623120423.598,-1000.000,-28.809,-51.270,-1000.000
1623120423.602,224.609,-3.418,24.414,144.043
1623120423.606,-875.977,23.926,18.066,995.117
1623120423.610,-60.547,-1.953,-67.383,-54.688
1623120423.613,-1000.000,-24.902,-75.684,-1000.000
1623120423.617,-189.941,7.812,17.090,-302.734
1623120423.621,-825.684,28.809,75.195,902.344
1623120423.625,260.254,18.555,22.949,271.973
1623120423.629,-1000.000,1.465,-36.621,-1000.000
1623120423.632,-540.039,13.184,19.531,-673.828
1623120423.636,966.797,37.598,98.145,645.996
1623120423.640,586.426,32.715,74.707,527.832
1623120423.644,-907.227,22.949,1.953,-776.367
1623120423.648,-891.113,30.273,8.789,-910.156
1623120423.652,530.762,37.109,89.844,300.293
1623120423.656,903.320,33.691,89.355,710.449
1623120423.659,-465.820,4.883,5.859,-480.957
1623120423.663,-1000.000,-15.137,0.488,-1000.000
1623120423.667,75.195,-0.488,81.055,-54.199
1623120423.671,-867.188,4.883,108.398,863.281
1623120423.675,-18.555,-20.020,29.785,-68.848
1623120423.677,-1000.000,-41.992,-28.809,-1000.000
1623120423.681,-266.602,-28.809,43.457,-387.695
1623120423.685,-848.633,-19.043,107.910,856.445
1623120423.689,333.008,-40.527,43.457,351.562
1623120423.693,-1000.000,-67.383,-43.945,-950.684
1623120423.697,-576.172,-58.105,-20.508,-671.387
1623120423.701,920.898,-29.297,60.547,696.777
1623120423.704,692.383,-36.621,36.621,710.449
1623120423.708,-788.574,-65.430,-55.176,-642.090
1623120423.712,-913.086,-67.871,-45.410,-888.184
1623120423.716,487.793,-34.180,32.227,389.160
1623120423.720,-978.516,-23.438,36.133,958.496
1623120423.737,-285.156,-56.152,-51.270,-229.004
1623120423.741,-1000.000,-65.918,-76.172,-1000.000
1623120423.745,49.316,-47.852,0.488,-6.836
1623120423.749,-817.383,-38.574,32.227,-947.266
1623120423.753,125.977,-58.105,-39.062,208.984
1623120423.757,-1000.000,-79.590,-97.168,-1000.000
1623120423.761,-298.828,-51.270,-38.574,-376.953
1623120423.764,-858.887,-27.344,37.109,937.012
1623120423.768,459.961,-50.781,-18.066,572.266
1623120423.772,-1000.000,-71.289,-103.516,-809.082
1623120423.776,-619.141,-52.734,-65.430,-662.109
1623120423.780,875.977,-27.832,17.578,698.242
1623120423.782,809.570,-41.992,-5.371,833.984
1623120423.786,-628.418,-64.453,-85.938,-475.098
1623120423.790,-975.098,-58.105,-72.266,-912.598
1623120423.794,466.797,-38.574,8.789,408.691
1623120423.798,959.473,-38.574,5.371,905.273
1623120423.802,-399.902,-57.129,-84.473,-299.805
1623120423.806,-1000.000,-62.500,-104.980,-976.074
1623120423.809,-9.766,-37.598,-25.879,-28.320
1623120423.813,-815.430,-21.484,12.207,-952.148
1623120423.817,198.242,-42.969,-50.293,299.805
1623120423.821,-1000.000,-46.387,-93.262,-972.168
1623120423.825,-366.211,-36.133,-38.574,-443.359
1623120423.827,-893.555,-19.531,41.504,879.395
1623120423.831,516.113,-20.508,1.465,615.723
1623120423.835,-984.863,-51.758,-83.984,-758.789
1623120423.839,-718.262,-41.992,-54.199,-768.555
1623120423.843,770.508,-6.836,34.180,596.680
1623120423.847,831.055,-12.207,24.414,817.871
1623120423.851,-586.426,-30.762,-52.734,-496.582
1623120423.854,-1000.000,-28.320,-51.758,-1000.000
1623120423.858,253.418,-0.977,40.527,149.902
1623120423.862,-918.945,28.320,83.496,907.227
1623120423.866,-145.020,4.883,7.324,-182.617
1623120423.870,-1000.000,-21.973,-32.715,-1000.000
1623120423.872,-164.062,1.465,31.738,-274.902
1623120423.876,-828.613,20.020,81.055,880.859
1623120423.880,225.098,-6.348,22.461,205.566
1623120423.884,-1000.000,-28.809,-48.340,-1000.000
1623120423.888,-468.262,-15.625,-6.836,-606.445
1623120423.892,-973.633,1.953,64.941,753.418
1623120423.896,579.102,-16.602,28.320,610.352
1623120423.899,-929.199,-54.688,-63.965,-750.000
1623120423.903,-791.992,-50.781,-50.781,-832.031
1623120423.907,660.645,-24.902,41.992,485.352
1623120423.911,926.758,-31.250,33.203,893.555
1623120423.915,-450.195,-62.988,-72.266,-371.094
1623120423.917,-1000.000,-74.707,-80.566,-999.512
1623120423.921,197.754,-54.688,8.789,162.598
1623120423.925,-851.562,-44.922,23.926,-945.801
1623120423.929,-5.859,-66.895,-56.641,36.621
1623120423.933,-1000.000,-81.055,-102.051,-1000.000
1623120423.937,-184.082,-53.711,-38.086,-147.949
1623120423.941,-821.289,-35.645,19.043,-986.328
1623120423.944,334.473,-55.664,-48.828,454.102
1623120423.948,-1000.000,-72.754,-103.516,-901.855
1623120423.952,-505.859,-64.453,-44.434,-588.867
1623120423.956,996.582,-37.598,30.273,782.227
1623120423.960,669.434,-42.480,0.488,731.445
1623120423.962,-814.941,-62.988,-86.426,-627.930
1623120423.966,-859.375,-59.570,-71.289,-854.980
1623120423.970,570.801,-37.109,16.602,452.148
1623120423.974,985.840,-31.738,18.066,927.734
1623120423.978,-344.727,-51.758,-64.941,-299.316
1623120423.982,-1000.000,-52.734,-82.031,-1000.000
1623120423.986,103.027,-25.391,1.465,54.199
1623120423.989,-835.938,-14.648,44.922,-975.098
1623120423.993,54.688,-46.875,-17.090,87.891
1623120423.997,-1000.000,-65.430,-69.336,-1000.000
1623120424.001,-278.320,-38.574,-1.465,-395.020
1623120424.005,-848.633,-20.508,72.266,895.996
1623120424.007,376.465,-29.297,24.414,423.340
1623120424.011,-1000.000,-50.781,-56.152,-916.016
1623120424.015,-614.746,-38.086,-10.742,-715.332
1623120424.019,884.277,-5.859,81.543,631.348
1623120424.023,718.262,-5.859,47.363,708.008
1623120424.027,-753.418,-32.715,-56.641,-621.094
1623120424.031,-952.148,-41.504,-68.848,-930.176
1623120424.034,431.641,-14.648,34.668,312.988
1623120424.038,-968.262,-19.531,62.500,928.223
1623120424.042,-260.742,-46.387,-30.273,-239.746
1623120424.046,-1000.000,-52.734,-62.012,-1000.000
1623120424.050,8.789,-38.574,12.695,-51.758
1623120424.052,-812.500,-34.180,51.270,-967.285
1623120424.056,157.715,-60.059,-35.156,224.609
1623120424.060,-1000.000,-70.312,-104.004,-1000.000
1623120424.064,-318.848,-49.805,-36.621,-376.953
1623120424.068,-869.629,-20.996,29.785,908.203
1623120424.072,490.723,-35.645,-32.715,534.668
1623120424.076,-1000.000,-64.453,-110.840,-797.363
1623120424.079,-647.461,-55.176,-71.777,-661.621
1623120424.083,842.773,-31.738,4.395,684.082
1623120424.087,838.867,-32.715,-15.137,861.328
1623120424.091,-588.867,-58.105,-108.887,-435.547
1623120424.095,-979.492,-58.594,-128.906,-905.762
1623120424.112,378.418,-30.762,-35.156,340.820
1623120424.116,-895.508,-20.996,-5.859,-967.773
1623120424.120,-124.512,-44.434,-91.309,-62.012
1623120424.124,-1000.000,-53.711,-123.047,-1000.000
1623120424.128,-53.223,-28.320,-49.316,-47.363
1623120424.132,-804.688,-19.043,-9.766,-935.547
1623120424.136,236.328,-45.898,-72.754,341.797
1623120424.139,-1000.000,-64.453,-122.559,-939.941
1623120424.143,-389.160,-45.898,-65.918,-427.246
1623120424.147,-911.621,-31.250,0.488,889.648
1623120424.151,565.918,-30.762,-22.461,655.273
1623120424.155,-937.500,-43.457,-85.449,-711.426
1623120424.156,-735.352,-43.945,-69.336,-747.070
1623120424.160,743.164,-22.461,12.207,591.309
1623120424.164,895.508,-21.484,14.648,886.230
1623120424.168,-497.070,-42.969,-70.801,-389.160
1623120424.172,-1000.000,-43.457,-86.914,-976.562
1623120424.176,247.559,-25.879,0.977,210.449
1623120424.180,-879.395,-21.973,39.062,-979.980
1623120424.183,-70.801,-33.203,-27.832,-41.016
1623120424.187,-1000.000,-54.199,-72.754,-1000.000
1623120424.191,-180.664,-26.367,16.113,-255.371
1623120424.195,-824.707,2.441,85.449,864.746
1623120424.199,250.000,-15.137,16.602,191.895
1623120424.202,-1000.000,-26.367,-40.039,-998.535
1623120424.206,-521.973,1.465,8.789,-656.250
1623120424.210,981.445,37.598,88.379,673.340
1623120424.214,590.332,21.484,48.340,554.688
1623120424.218,-912.598,-12.695,-45.898,-766.602
1623120424.222,-849.121,-7.324,-36.621,-876.465
1623120424.226,582.520,16.113,58.105,375.000
1623120424.229,933.105,6.348,59.082,813.477
1623120424.233,-435.059,-24.902,-39.551,-396.973
1623120424.237,-1000.000,-27.344,-52.734,-1000.000
1623120424.241,138.672,-9.766,27.344,52.734
1623120424.245,-844.727,-7.324,47.852,-980.957
1623120424.246,21.484,-30.273,-50.293,70.312
1623120424.250,-1000.000,-48.340,-100.098,-1000.000
1623120424.254,-215.820,-31.250,-28.809,-283.691
1623120424.258,-831.055,-14.648,18.066,987.793
1623120424.262,371.094,-26.367,-37.598,486.816
1623120424.266,-1000.000,-48.340,-113.770,-869.629
1623120424.270,-526.855,-35.156,-81.055,-584.473
1623120424.273,968.750,-18.555,-15.625,765.137
1623120424.277,730.957,-35.645,-39.062,773.438
1623120424.281,-742.188,-60.547,-108.398,-566.895
1623120424.285,-866.699,-54.199,-104.980,-833.008
1623120424.289,556.641,-27.344,-22.461,463.379
1623120424.291,-965.820,-19.531,-9.766,981.445
1623120424.295,-265.625,-43.945,-102.051,-195.801
1623120424.299,-1000.000,-53.711,-132.812,-998.047
1623120424.303,78.613,-29.297,-57.129,65.430
1623120424.307,-816.406,-21.973,-17.578,-932.617
1623120424.311,118.164,-42.969,-81.543,209.961
1623120424.315,-1000.000,-49.316,-133.301,-985.840
1623120424.318,-272.949,-35.645,-76.172,-304.688
1623120424.322,-847.656,-21.484,0.488,970.215
1623120424.326,450.684,-34.180,-47.363,567.871
1623120424.330,-1000.000,-61.523,-132.324,-804.688
1623120424.334,-607.910,-51.270,-91.797,-647.949
1623120424.336,891.602,-26.855,-7.324,707.520
1623120424.340,788.086,-32.715,-31.738,819.824
1623120424.344,-660.156,-55.664,-115.723,-500.977
1623120424.348,-948.242,-51.758,-99.121,-899.414
1623120424.352,433.594,-23.438,-9.277,366.211
1623120424.356,-931.641,-24.902,3.906,-1000.000
1623120424.360,-188.965,-53.711,-78.125,-137.207
1623120424.363,-1000.000,-59.570,-97.168,-1000.000
1623120424.367,-29.785,-25.391,-4.883,-73.730
1623120424.371,-814.453,-4.883,27.344,-965.820
1623120424.375,164.062,-31.738,-33.203,241.211
1623120424.379,-1000.000,-50.293,-76.172,-1000.000
1623120424.396,-397.949,-18.066,-7.812,-524.414
1623120424.400,-908.691,1.953,79.590,801.270
1623120424.404,444.824,-4.883,41.992,450.195
1623120424.408,-1000.000,-20.996,-30.762,-871.094
1623120424.412,-781.738,-11.230,4.395,-844.727
1623120424.416,681.152,27.344,100.586,397.461
1623120424.420,783.203,27.344,105.957,630.859
1623120424.423,-659.668,1.465,27.344,-592.285
1623120424.427,-1000.000,-0.977,17.090,-1000.000
1623120424.431,239.746,17.090,88.867,63.965
1623120424.435,-924.316,15.137,110.352,830.078
1623120424.439,-158.203,-11.230,23.438,-218.750
1623120424.426,-1000.000,-26.855,-34.668,-1000.000
1623120424.430,-131.836,-12.695,26.367,-241.211
1623120424.434,-818.848,-5.859,69.336,926.270
1623120424.438,243.164,-26.367,8.301,276.367
1623120424.442,-1000.000,-50.293,-63.965,-1000.000
1623120424.446,-443.359,-48.340,-24.902,-553.711
1623120424.450,-956.055,-23.438,49.805,805.664
1623120424.453,596.191,-32.715,0.977,675.781
1623120424.457,-909.180,-57.129,-100.098,-700.684
1623120424.461,-769.043,-53.223,-83.008,-779.785
1623120424.465,693.848,-25.391,8.301,562.988
1623120424.469,938.477,-20.996,-1.465,917.969
1623120424.487,-438.965,-56.152,-113.770,-337.891
1623120424.491,-1000.000,-59.082,-120.117,-951.660
1623120424.495,229.492,-29.785,-26.855,228.027
1623120424.499,-847.168,-28.809,-12.695,-929.688
1623120424.503,-0.977,-64.453,-104.004,81.055
1623120424.507,-1000.000,-78.125,-138.184,-979.004
1623120424.511,-158.203,-46.387,-57.129,-140.137
1623120424.514,-816.406,-25.879,-0.488,-959.473
1623120424.518,343.262,-42.969,-61.523,476.074
1623120424.522,-1000.000,-56.641,-132.324,-856.445
1623120424.526,-477.539,-39.062,-79.102,-513.184
1623120424.530,-982.910,-22.949,-5.859,823.730
1623120424.532,683.105,-30.273,-45.898,756.348
1623120424.536,-799.316,-46.387,-128.418,-589.844
1623120424.540,-823.730,-42.969,-99.121,-792.480
1623120424.544,619.141,-26.855,-16.113,518.555
1623120424.548,-996.094,-25.879,-16.113,961.914
1623120424.552,-324.707,-52.246,-99.121,-238.281
1623120424.556,-1000.000,-52.246,-117.188,-974.609
1623120424.559,134.277,-26.367,-23.438,137.207
1623120424.563,-826.172,-25.391,2.441,-922.363
1623120424.567,72.754,-41.992,-76.660,162.109
1623120424.571,-1000.000,-54.199,-113.281,-994.141
1623120424.575,-241.211,-41.992,-50.781,-255.859
1623120424.577,-835.938,-17.090,15.625,991.211
1623120424.581,405.273,-28.320,-33.203,525.391
1623120424.585,-1000.000,-54.688,-112.793,-840.820
1623120424.589,-549.316,-42.480,-74.219,-583.984
1623120424.593,880.859,-17.578,1.953,706.543
1623120424.597,650.879,-25.879,-29.785,717.773
1623120424.601,-713.867,-50.293,-97.656,-527.832
1623120424.604,-909.668,-43.945,-81.055,-871.582
1623120424.608,488.770,-15.625,1.465,414.062
1623120424.612,-957.031,-8.789,20.508,976.074
1623120424.616,-240.723,-38.086,-64.941,-202.148
1623120424.620,-1000.000,-54.199,-104.980,-1000.000
1623120424.622,29.785,-32.715,-25.879,5.859
1623120424.626,-812.012,-16.602,24.414,-947.754
1623120424.630,144.531,-39.551,-49.316,214.355
1623120424.634,-1000.000,-60.547,-109.375,-1000.000
1623120424.638,-311.523,-30.273,-42.480,-401.367
1623120424.642,-863.281,-2.441,32.715,916.992
1623120424.646,463.379,-19.043,-12.695,570.801
1623120424.649,-1000.000,-47.363,-100.098,-805.176
1623120424.653,-654.785,-40.039,-63.477,-719.238
1623120424.657,835.938,-10.742,33.203,636.719
1623120424.661,814.453,-18.555,10.742,820.801
1623120424.665,-622.559,-46.875,-78.613,-497.559
1623120424.667,-988.281,-45.410,-77.637,-943.359
1623120424.671,370.605,-14.648,9.766,293.945
1623120424.675,-918.457,-10.742,26.855,-994.141
1623120424.679,-162.598,-38.574,-61.523,-115.723
1623120424.683,-1000.000,-46.875,-94.238,-1000.000
1623120424.687,-62.500,-25.879,-22.949,-106.934
1623120424.691,-812.500,-7.324,24.902,-966.309
1623120424.694,204.102,-20.996,-33.691,296.875
1623120424.698,-1000.000,-31.250,-80.566,-996.582
1623120424.702,-389.648,-11.719,-22.461,-485.352
1623120424.706,-912.109,2.930,34.668,861.328
1623120424.710,538.086,-6.836,-3.418,616.211
1623120424.712,-965.820,-32.227,-81.055,-756.348
1623120424.716,-732.422,-28.809,-60.547,-779.297
1623120424.720,745.117,-1.953,28.320,565.918
1623120424.724,875.000,-4.395,23.438,861.816
1623120424.728,-515.625,-23.926,-64.453,-406.250
1623120424.732,-1000.000,-29.297,-82.520,-965.820
1623120424.736,263.672,-18.066,-5.859,197.266
1623120424.739,-878.906,-10.742,28.809,-978.516
1623120424.743,-75.684,-26.367,-37.109,-45.898
1623120424.747,-1000.000,-47.363,-83.008,-1000.000
1623120424.751,-129.883,-29.785,-11.230,-173.828
1623120424.755,-813.477,-1.953,36.621,-974.121
1623120424.756,268.555,-11.230,-34.668,347.656
1623120424.760,-1000.000,-31.250,-104.980,-981.445
1623120424.764,-460.449,-12.207,-49.805,-576.660
1623120424.768,-968.262,13.672,36.133,786.621
1623120424.772,615.723,3.906,-1.953,670.898
1623120424.776,-880.371,-30.273,-96.191,-692.871
1623120424.780,-808.105,-32.227,-82.031,-830.078
1623120424.783,644.531,1.953,12.207,492.676
1623120424.787,948.730,1.953,15.137,898.438
1623120424.791,-412.598,-27.344,-76.172,-356.934
1623120424.795,-1000.000,-34.180,-88.867,-1000.000
1623120424.799,163.574,-9.277,-1.465,94.727
1623120424.801,-847.656,-2.930,17.578,-973.633
1623120424.805,7.812,-26.855,-63.965,57.617
1623120424.809,-1000.000,-37.598,-100.098,-1000.000
1623120424.813,-209.473,-23.926,-29.297,-294.922
1623120424.817,-828.125,-5.859,34.668,969.727
1623120424.821,346.680,-19.531,-23.438,460.449
1623120424.825,-1000.000,-39.551,-91.309,-897.949
1623120424.828,-534.180,-21.973,-27.832,-629.395
1623120424.832,966.797,0.488,48.340,742.188
1623120424.836,684.570,-6.836,4.883,732.910
1623120424.840,-796.875,-28.320,-80.566,-622.070
1623120424.844,-879.883,-20.996,-62.012,-876.465
1623120424.861,539.551,7.812,21.484,417.480
1623120424.865,-995.117,4.395,16.113,932.617
1623120424.869,-313.477,-28.809,-69.336,-281.250
1623120424.873,-1000.000,-33.691,-80.566,-1000.000
1623120424.877,74.707,-7.812,1.953,13.672
1623120424.881,-826.172,-3.906,30.273,-970.215
1623120424.885,85.449,-24.902,-40.527,138.184
1623120424.888,-1000.000,-36.133,-91.309,-1000.000
1623120424.892,-286.621,-25.391,-35.645,-392.090
1623120424.896,-852.539,-8.789,33.691,928.223
1623120424.900,411.133,-20.508,-2.441,522.461
1623120424.904,-1000.000,-51.270,-83.008,-853.027
1623120424.907,-619.141,-41.016,-55.176,-687.988
1623120424.911,876.953,-13.672,35.156,682.129
1623120424.915,761.719,-15.625,18.555,790.039
1623120424.919,-696.777,-37.109,-76.172,-545.410
1623120424.923,-958.984,-49.316,-73.730,-930.176
1623120424.927,420.410,-26.367,15.625,322.754
1623120424.931,-947.266,-13.672,32.715,979.004
1623120424.934,-219.238,-40.039,-47.852,-177.734
1623120424.938,-1000.000,-53.711,-93.262,-1000.000
1623120424.942,-17.578,-27.344,-12.207,-76.660
1623120424.946,-813.477,-4.395,47.852,-978.027
1623120424.950,166.016,-20.996,-33.203,230.957
1623120424.952,-1000.000,-36.621,-89.844,-1000.000
1623120424.956,-354.980,-25.879,-23.438,-445.312
1623120424.960,-888.184,-6.836,42.969,885.254
1623120424.964,494.629,-18.066,-0.977,588.867
1623120424.968,-1000.000,-41.992,-68.848,-787.109
1623120424.972,-687.012,-26.367,-35.645,-746.582
1623120424.976,797.363,2.930,45.410,611.816
1623120424.979,840.820,-4.883,22.949,831.055
1623120424.983,-584.473,-35.156,-76.660,-474.609
1623120424.987,-1000.000,-36.621,-68.848,-954.102
1623120424.991,325.195,-7.812,29.297,260.742
1623120424.995,-902.344,0.000,41.504,-988.281
1623120424.996,-128.906,-36.133,-53.223,-80.566
1623120425.000,-1000.000,-53.223,-81.055,-1000.000
1623120425.004,-93.262,-28.809,-3.418,-156.250
1623120425.008,-811.035,-15.625,36.133,-987.793
1623120425.012,243.164,-34.668,-29.785,344.727
1623120425.016,-1000.000,-42.480,-91.797,-965.332
1623120425.020,-432.129,-23.438,-43.945,-549.805
1623120425.023,-938.965,-1.953,28.809,809.570
1623120425.027,564.941,-1.465,-6.348,625.000
1623120425.031,-940.918,-21.973,-83.008,-744.629
1623120425.035,-764.160,-15.137,-62.500,-821.289
1623120425.039,702.148,10.254,17.578,505.371
1623120425.041,901.367,7.324,7.812,849.121
1623120425.045,-484.375,-17.090,-83.008,-425.781
1623120425.049,-1000.000,-27.344,-95.215,-1000.000
1623120425.053,235.352,-4.395,0.977,147.949
1623120425.057,-921.875,7.812,22.949,942.871
1623120425.061,-127.930,-17.090,-69.824,-102.539
1623120425.065,-1000.000,-34.668,-108.398,-1000.000
1623120425.068,-178.711,-5.371,-25.879,-254.883
1623120425.072,-824.707,18.555,43.945,976.562
1623120425.076,307.617,-7.324,-15.625,392.090
1623120425.080,-1000.000,-32.715,-92.773,-952.148
1623120425.084,-480.957,-20.508,-42.969,-571.777
1623120425.086,-973.633,4.395,41.504,806.152
1623120425.090,640.137,-1.953,1.953,704.102
1623120425.094,-847.656,-28.320,-79.102,-672.363
1623120425.098,-843.262,-23.926,-55.176,-816.406
1623120425.102,593.750,6.348,23.438,515.137
1623120425.106,971.191,7.324,21.484,922.363
1623120425.110,-376.465,-22.949,-73.730,-303.711
1623120425.113,-1000.000,-22.949,-88.379,-1000.000
1623120425.117,135.254,0.977,11.719,84.473
1623120425.121,-836.914,-2.930,31.250,-960.449
1623120425.125,46.875,-24.902,-44.922,94.238
1623120425.129,-1000.000,-33.691,-89.355,-1000.000
1623120425.131,-239.746,-15.625,-16.113,-338.379
1623120425.135,-835.938,-0.977,47.363,955.566
1623120425.139,372.070,-8.789,-14.160,480.469
1623120425.143,-1000.000,-28.809,-90.332,-895.020
1623120425.147,-572.754,-25.391,-55.664,-657.715
1623120425.151,928.223,-6.348,22.949,714.355
1623120425.155,719.238,-6.836,3.906,763.184
1623120425.158,-754.883,-24.902,-70.312,-584.961
1623120425.162,-909.668,-24.902,-59.570,-905.762
1623120425.166,494.141,-2.930,22.461,369.629
1623120425.170,-974.121,1.953,31.738,962.402
1623120425.174,-271.484,-21.973,-56.641,-226.074
1623120425.177,-1000.000,-31.738,-78.125,-1000.000
1623120425.181,35.156,-9.277,5.859,-18.555
1623120425.185,-819.336,5.371,48.340,-970.703
1623120425.189,121.582,-12.695,-25.391,181.641
1623120425.193,-1000.000,-35.156,-83.984,-1000.000
1623120425.197,-314.453,-23.438,-26.367,-406.738
1623120425.201,-860.840,10.742,42.969,921.875
1623120425.204,435.547,-7.812,-4.883,529.785
1623120425.208,-1000.000,-43.945,-90.820,-807.129
1623120425.212,-585.449,-29.297,-52.734,-669.922
1623120425.216,844.727,2.930,33.691,641.602
1623120425.220,797.363,-1.465,21.973,807.617
1623120425.236,-644.043,-39.062,-69.824,-518.066
1623120425.240,-981.445,-42.969,-68.359,-941.895
1623120425.244,381.348,-19.531,22.461,302.734
1623120425.248,-922.363,-9.766,47.363,992.188
1623120425.252,-170.410,-28.320,-40.039,-144.043
1623120425.256,-1000.000,-44.434,-90.820,-1000.000
1623120425.260,-52.246,-24.414,-7.324,-105.957
1623120425.263,-812.500,-0.488,49.805,-979.004
1623120425.267,191.406,-20.996,-30.273,267.578
1623120425.271,-1000.000,-39.551,-101.074,-1000.000
1623120425.275,-392.578,-20.996,-35.645,-513.184
1623120425.279,-905.762,-5.371,40.527,854.492
1623120425.281,501.953,-21.484,-12.207,569.824
1623120425.285,-1000.000,-41.504,-96.191,-820.801
1623120425.289,-720.215,-26.367,-56.152,-775.879
1623120425.293,752.930,0.488,45.898,564.453
1623120425.297,861.328,-1.953,25.879,848.633
1623120425.301,-546.875,-39.062,-78.613,-446.289
1623120425.305,-1000.000,-49.316,-83.496,-989.746
1623120425.308,270.508,-15.625,11.719,193.359
1623120425.312,-889.648,-11.230,30.273,-990.723
1623120425.316,-96.680,-34.180,-53.223,-52.734
1623120425.320,-1000.000,-34.668,-82.520,-1000.000
1623120425.324,-134.277,-12.207,-7.812,-209.961
1623120425.326,-815.918,3.418,57.129,-1000.000
1623120425.330,261.719,-11.719,-8.789,349.609
1623120425.334,-1000.000,-35.156,-86.914,-975.098
1623120425.338,-455.566,-29.785,-41.016,-555.664
1623120425.342,-961.914,-16.113,29.785,806.152
1623120425.346,598.633,-21.484,-8.789,640.137
1623120425.350,-898.926,-34.180,-84.473,-722.656
1623120425.353,-803.223,-24.414,-61.523,-826.660
1623120425.357,646.973,-12.207,20.508,497.070
1623120425.361,939.941,-16.602,34.668,890.625
1623120425.365,-496.582,-39.551,-56.641,-428.711
1623120425.369,-973.633,-38.574,-66.895,-918.945
1623120425.371,398.438,-8.789,19.531,301.758
1623120425.375,-870.117,-5.371,39.551,997.070
1623120425.379,-8.301,-33.691,-37.109,16.113
1623120425.383,-1000.000,-41.992,-81.543,-1000.000
1623120425.387,-195.801,-12.207,-8.301,-274.902
1623120425.391,-824.707,1.465,44.434,978.027
1623120425.395,332.520,-14.160,-8.301,434.570
1623120425.398,-1000.000,-29.297,-75.195,-912.109
1623120425.402,-533.203,-21.484,-44.434,-639.160
1623120425.406,966.797,-1.953,32.715,725.098
1623120425.410,680.176,-12.695,8.301,727.051
1623120425.414,-805.176,-35.645,-75.195,-633.301
1623120425.416,-872.070,-26.367,-60.547,-878.418
1623120425.420,554.688,6.348,35.156,420.410
1623120425.424,991.211,11.230,39.062,944.336
1623120425.428,-334.473,-22.461,-59.082,-296.387
1623120425.432,-1000.000,-35.645,-86.914,-1000.000
1623120425.436,80.078,-17.090,-12.695,77.637
1623120425.440,-833.496,-7.324,24.902,-998.535
1623120425.443,64.941,-23.926,-42.969,105.957
1623120425.447,-1000.000,-28.320,-80.566,-1000.000
1623120425.451,-279.785,-1.953,-3.418,-386.230
1623120425.455,-849.609,5.371,52.734,920.410
1623120425.459,392.090,-16.602,3.418,474.609
1623120425.461,-1000.000,-17.578,-72.266,-891.602
1623120425.465,-611.816,3.906,-41.016,-689.941
1623120425.469,892.090,6.836,62.012,673.340
1623120425.473,714.844,2.441,45.898,704.590
1623120425.477,-702.637,-2.930,-26.855,-576.172
1623120425.481,-921.387,-10.254,-14.648,-892.090
1623120425.485,396.484,1.465,71.289,258.789
1623120425.488,-988.770,12.695,101.562,851.562
1623120425.492,-274.902,-1.953,27.832,-304.199
1623120425.496,-1000.000,-13.672,-3.906,-1000.000
1623120425.500,-59.082,1.953,81.543,-192.383
1623120425.504,-840.332,21.484,142.578,827.148
1623120425.506,92.285,5.371,65.918,9.766
1623120425.510,-1000.000,-12.695,-3.906,-1000.000
1623120425.514,-409.668,4.883,64.453,-553.223
1623120425.518,-925.293,23.438,141.602,709.961
1623120425.522,419.922,8.301,74.219,368.652
1623120425.526,-1000.000,-19.531,-14.648,-910.645
1623120425.530,-726.562,-8.301,33.691,-800.781
1623120425.533,740.723,21.484,118.164,482.422
1623120425.537,786.133,18.555,92.285,690.430
1623120425.541,-661.621,-12.207,-15.137,-573.242
1623120425.545,-1000.000,-14.648,-32.715,-992.676
1623120425.549,303.223,11.230,59.082,189.941
1623120425.552,-922.363,8.301,72.754,860.352
1623120425.556,-156.738,-13.672,-15.625,-247.070
1623120425.560,-1000.000,-15.625,-55.176,-1000.000
1623120425.564,-81.055,2.441,16.602,-175.293
1623120425.568,-872.559,8.789,53.223,931.641
1623120425.572,129.395,-12.695,-32.715,206.543
1623120425.576,-1000.000,-24.414,-89.355,-1000.000
1623120425.579,-415.527,-12.695,-29.297,-525.391
1623120425.583,-933.105,2.441,37.109,823.242
1623120425.587,562.012,-10.254,-14.648,638.672
1623120425.591,-945.801,-33.203,-104.980,-738.770
1623120425.595,-742.676,-17.090,-69.824,-787.109
1623120425.611,729.004,6.348,3.418,557.129
1623120425.615,900.879,-4.395,-19.531,882.812
1623120425.619,-490.723,-26.367,-92.773,-395.508
1623120425.623,-1000.000,-32.715,-99.609,-971.680
1623120425.627,251.465,-7.324,-24.902,212.891
1623120425.631,-865.234,-4.883,0.000,-963.867
1623120425.635,-43.945,-31.738,-77.637,9.766
1623120425.638,-1000.000,-33.203,-115.234,-1000.000
1623120425.642,-143.555,-15.625,-43.457,-172.363
1623120425.646,-814.941,0.488,-4.395,-973.633
1623120425.650,309.082,-8.301,-62.500,425.781
1623120425.654,-1000.000,-32.715,-124.023,-906.738
1623120425.656,-468.262,-20.996,-74.707,-525.391
1623120425.660,-975.586,3.418,6.836,824.219
1623120425.664,652.344,-6.348,-23.926,714.844
1623120425.668,-837.891,-37.109,-115.234,-640.625
1623120425.672,-811.035,-37.598,-107.910,-803.223
1623120425.676,637.695,-3.906,-14.648,518.555
1623120425.680,977.539,-4.395,-13.184,936.035
1623120425.683,-364.746,-32.715,-97.168,-293.457
1623120425.687,-1000.000,-38.086,-104.980,-976.562
1623120425.691,148.926,-10.742,-20.508,156.250
1623120425.695,-833.984,0.000,16.113,-937.500
1623120425.699,47.852,-23.438,-69.336,122.559
1623120425.702,-1000.000,-44.434,-115.723,-1000.000
1623120425.706,-223.633,-37.109,-46.875,-255.859
1623120425.710,-831.543,-11.719,14.160,979.004
1623120425.714,376.465,-17.578,-40.039,486.816
1623120425.718,-1000.000,-40.527,-115.723,-867.188
1623120425.722,-550.293,-32.715,-70.312,-611.816
1623120425.726,948.730,-7.324,8.301,742.188
1623120425.729,724.121,-15.625,-12.207,771.973
1623120425.733,-750.977,-45.410,-91.797,-563.477
1623120425.737,-889.160,-32.227,-75.195,-861.328
1623120425.741,526.367,-5.859,18.066,422.363
1623120425.745,-974.121,-16.113,17.090,967.285
1623120425.746,-274.414,-33.203,-68.359,-214.355
1623120425.750,-1000.000,-23.438,-87.402,-1000.000
1623120425.754,58.105,-7.812,-21.973,26.367
1623120425.758,-819.336,-2.930,11.230,-944.824
1623120425.762,113.281,-20.020,-40.527,179.199
1623120425.766,-1000.000,-37.109,-100.098,-1000.000
1623120425.770,-297.363,-17.090,-35.156,-357.422
1623120425.773,-858.887,-9.766,29.785,938.477
1623120425.777,445.801,-24.902,-33.203,554.199
1623120425.781,-1000.000,-33.203,-104.980,-829.590
1623120425.785,-629.883,-28.809,-72.266,-652.832
1623120425.789,867.188,-7.812,16.113,725.586
1623120425.806,784.180,-14.160,-0.488,799.316
1623120425.810,-663.574,-44.922,-86.914,-521.484
1623120425.814,-971.191,-41.992,-82.031,-919.434
1623120425.818,397.461,-10.742,10.254,329.102
1623120425.822,-931.152,-4.883,38.574,991.699
1623120425.826,-186.523,-28.809,-46.875,-145.020
1623120425.830,-1000.000,-50.781,-94.727,-1000.000
1623120425.833,-37.109,-43.457,-29.785,-81.543
1623120425.837,-811.523,-5.859,35.156,-968.750
1623120425.841,184.570,-7.324,-27.832,260.254
1623120425.845,-1000.000,-34.180,-115.234,-1000.000
1623120425.849,-368.164,-19.043,-51.270,-467.773
1623120425.836,-898.438,2.930,39.551,867.188
1623120425.840,515.625,-10.254,-10.254,605.957
1623120425.844,-988.281,-31.738,-96.680,-766.602
1623120425.848,-707.520,-24.902,-54.199,-756.836
1623120425.852,774.414,-0.977,30.762,595.703
1623120425.856,855.957,-9.766,7.324,845.215
1623120425.860,-559.082,-37.598,-81.055,-452.148
1623120425.863,-1000.000,-35.645,-79.590,-967.285
1623120425.867,295.898,-8.789,7.812,228.516
1623120425.871,-890.137,5.859,23.438,-989.746
1623120425.875,-103.027,-42.969,-69.824,-42.969
1623120425.879,-1000.000,-59.082,-95.215,-1000.000
1623120425.883,-107.910,-1.465,-5.859,-136.230
1623120425.887,-812.012,3.906,35.645,-989.258
1623120425.891,248.535,-22.949,-34.180,346.191
1623120425.895,-1000.000,-35.156,-90.332,-980.957
1623120425.899,-440.918,-18.066,-37.109,-531.738
1623120425.903,-951.660,4.883,33.203,840.820
1623120425.907,591.309,-3.906,-8.301,654.297
1623120425.910,-908.691,-22.461,-81.543,-711.914
1623120425.914,-784.668,-18.555,-57.129,-826.660
1623120425.918,675.293,1.953,13.184,499.023
1623120425.922,927.246,1.465,1.465,887.695
1623120425.926,-447.266,-21.973,-83.496,-372.559
1623120425.926,-1000.000,-29.297,-94.727,-994.141
1623120425.930,203.613,-8.789,-11.230,148.926
1623120425.934,-852.539,4.883,21.484,-976.074
1623120425.938,-8.789,-17.090,-54.688,18.066
1623120425.942,-1000.000,-31.738,-99.121,-1000.000
1623120425.946,-184.570,-11.719,-37.109,-261.230
